Sampling rate: 10000.000 samples/sec
Screen size: 2000 samples
DOP average: 1 SOPsamples
Start time: 16:23:50 5/18/2021
Interval: 0.000100000 sec
(Waveform type: 1,3,4,5)
Index      S0(mW)      S1      S2      S3      S0(mW)      S1      S2      S3      DOP
1   0.07961   0.88711   -0.41691   0.19874   0.07961   0.88711   -0.41691   0.19874   102.23999
2   0.07971   0.88684   -0.41816   0.19703   0.07971   0.88684   -0.41816   0.19703   102.24915
3   0.07969   0.88665   -0.41810   0.19810   0.07969   0.88665   -0.41810   0.19810   102.19421
4   0.07968   0.88659   -0.41835   0.19755   0.07968   0.88659   -0.41835   0.19755   102.18201
5   0.07962   0.88675   -0.41853   0.19712   0.07962   0.88675   -0.41853   0.19712   102.25220
6   0.07954   0.88681   -0.41838   0.19669   0.07954   0.88681   -0.41838   0.19669   102.28882
7   0.07966   0.88702   -0.41774   0.19718   0.07966   0.88702   -0.41774   0.19718   102.19421
8   0.07964   0.88665   -0.41847   0.19718   0.07964   0.88665   -0.41847   0.19718   102.22778
9   0.07965   0.88653   -0.41926   0.19617   0.07965   0.88653   -0.41926   0.19617   102.27356
10   0.07959   0.88690   -0.41780   0.19782   0.07959   0.88690   -0.41780   0.19782   102.28882
11   0.07970   0.88678   -0.41826   0.19715   0.07970   0.88678   -0.41826   0.19715   102.22778
12   0.07970   0.88653   -0.41835   0.19828   0.07970   0.88653   -0.41835   0.19828   102.20337
13   0.07964   0.88687   -0.41813   0.19712   0.07964   0.88687   -0.41813   0.19712   102.28577
14   0.07966   0.88650   -0.41865   0.19764   0.07966   0.88650   -0.41865   0.19764   102.29797
15   0.07975   0.88650   -0.41865   0.19816   0.07975   0.88650   -0.41865   0.19816   102.17896
16   0.07976   0.88690   -0.41844   0.19639   0.07976   0.88690   -0.41844   0.19639   102.20337
17   0.07964   0.88656   -0.41865   0.19742   0.07964   0.88656   -0.41865   0.19742   102.27356
18   0.07966   0.88678   -0.41810   0.19791   0.07966   0.88678   -0.41810   0.19791   102.21558
19   0.07969   0.88675   -0.41835   0.19755   0.07969   0.88675   -0.41835   0.19755   102.16980
20   0.07961   0.88690   -0.41792   0.19736   0.07961   0.88690   -0.41792   0.19736   102.23083
21   0.07957   0.88656   -0.41838   0.19776   0.07957   0.88656   -0.41838   0.19776   102.30103
22   0.07964   0.88681   -0.41792   0.19773   0.07964   0.88681   -0.41792   0.19773   102.25220
23   0.07974   0.88672   -0.41850   0.19724   0.07974   0.88672   -0.41850   0.19724   102.17896
24   0.07966   0.88687   -0.41801   0.19749   0.07966   0.88687   -0.41801   0.19749   102.25220
25   0.07960   0.88702   -0.41823   0.19593   0.07960   0.88702   -0.41823   0.19593   102.29797
26   0.07966   0.88714   -0.41780   0.19614   0.07966   0.88714   -0.41780   0.19614   102.21558
27   0.07967   0.88690   -0.41768   0.19776   0.07967   0.88690   -0.41768   0.19776   102.19421
28   0.07967   0.88668   -0.41868   0.19697   0.07967   0.88668   -0.41868   0.19697   102.25220
29   0.07968   0.88610   -0.41911   0.19855   0.07968   0.88610   -0.41911   0.19855   102.24915
30   0.07974   0.88626   -0.41887   0.19825   0.07974   0.88626   -0.41887   0.19825   102.23694
31   0.07970   0.88647   -0.41914   0.19681   0.07970   0.88647   -0.41914   0.19681   102.21558
32   0.07963   0.88699   -0.41786   0.19739   0.07963   0.88699   -0.41786   0.19739   102.25220
33   0.07962   0.88672   -0.41826   0.19739   0.07962   0.88672   -0.41826   0.19739   102.20642
34   0.07966   0.88668   -0.41899   0.19633   0.07966   0.88668   -0.41899   0.19633   102.20642
35   0.07961   0.88668   -0.41826   0.19755   0.07961   0.88668   -0.41826   0.19755   102.26440
36   0.07959   0.88656   -0.41856   0.19782   0.07959   0.88656   -0.41856   0.19782   102.24304
37   0.07968   0.88638   -0.41853   0.19822   0.07968   0.88638   -0.41853   0.19822   102.20337
38   0.07967   0.88662   -0.41856   0.19745   0.07967   0.88662   -0.41856   0.19745   102.26135
39   0.07969   0.88702   -0.41829   0.19599   0.07969   0.88702   -0.41829   0.19599   102.29492
40   0.07969   0.88659   -0.41862   0.19745   0.07969   0.88659   -0.41862   0.19745   102.22778
41   0.07976   0.88675   -0.41826   0.19718   0.07976   0.88675   -0.41826   0.19718   102.20337
42   0.07969   0.88681   -0.41801   0.19742   0.07969   0.88681   -0.41801   0.19742   102.26135
43   0.07958   0.88589   -0.42061   0.19666   0.07958   0.88589   -0.42061   0.19666   102.32239
44   0.07970   0.88672   -0.41911   0.19575   0.07970   0.88672   -0.41911   0.19575   102.15759
45   0.07966   0.88635   -0.41914   0.19687   0.07966   0.88635   -0.41914   0.19687   102.20642
46   0.07962   0.88638   -0.41905   0.19697   0.07962   0.88638   -0.41905   0.19697   102.31018
47   0.07953   0.88659   -0.41893   0.19663   0.07953   0.88659   -0.41893   0.19663   102.28882
48   0.07970   0.88568   -0.42039   0.19770   0.07970   0.88568   -0.42039   0.19770   102.16980
49   0.07967   0.88586   -0.42033   0.19733   0.07967   0.88586   -0.42033   0.19733   102.19421
50   0.07962   0.88644   -0.41932   0.19691   0.07962   0.88644   -0.41932   0.19691   102.29797
51   0.07961   0.88610   -0.41957   0.19773   0.07961   0.88610   -0.41957   0.19773   102.23999
52   0.07972   0.88586   -0.41981   0.19819   0.07972   0.88586   -0.41981   0.19819   102.15759
53   0.07966   0.88665   -0.41899   0.19623   0.07966   0.88665   -0.41899   0.19623   102.21558
54   0.07959   0.88647   -0.41972   0.19498   0.07959   0.88647   -0.41972   0.19498   102.32239
55   0.07965   0.88678   -0.41939   0.19532   0.07965   0.88678   -0.41939   0.19532   102.22778
56   0.07966   0.88595   -0.42064   0.19572   0.07966   0.88595   -0.42064   0.19572   102.23999
57   0.07970   0.88610   -0.41963   0.19727   0.07970   0.88610   -0.41963   0.19727   102.24915
58   0.07968   0.88580   -0.42027   0.19730   0.07968   0.88580   -0.42027   0.19730   102.30713
59   0.07978   0.88568   -0.42018   0.19846   0.07978   0.88568   -0.42018   0.19846   102.21252
60   0.07965   0.88610   -0.41960   0.19742   0.07965   0.88610   -0.41960   0.19742   102.21863
61   0.07956   0.88604   -0.41935   0.19825   0.07956   0.88604   -0.41935   0.19825   102.23083
62   0.07964   0.88659   -0.41777   0.19935   0.07964   0.88659   -0.41777   0.19935   102.22778
63   0.07966   0.88620   -0.41905   0.19855   0.07966   0.88620   -0.41905   0.19855   102.22778
64   0.07958   0.88620   -0.41932   0.19745   0.07958   0.88620   -0.41932   0.19745   102.26440
65   0.07955   0.88543   -0.42112   0.19697   0.07955   0.88543   -0.42112   0.19697   102.24304
66   0.07958   0.88519   -0.42140   0.19782   0.07958   0.88519   -0.42140   0.19782   102.17285
67   0.07965   0.88629   -0.41865   0.19901   0.07965   0.88629   -0.41865   0.19901   102.20642
68   0.07963   0.88647   -0.41755   0.19999   0.07963   0.88647   -0.41755   0.19999   102.23999
69   0.07965   0.88632   -0.41893   0.19813   0.07965   0.88632   -0.41893   0.19813   102.22778
70   0.07970   0.88614   -0.41951   0.19764   0.07970   0.88614   -0.41951   0.19764   102.19116
71   0.07972   0.88571   -0.42021   0.19752   0.07972   0.88571   -0.42021   0.19752   102.26135
72   0.07961   0.88586   -0.41960   0.19828   0.07961   0.88586   -0.41960   0.19828   102.31018
73   0.07966   0.88632   -0.41932   0.19709   0.07966   0.88632   -0.41932   0.19709   102.22778
74   0.07965   0.88577   -0.41981   0.19834   0.07965   0.88577   -0.41981   0.19834   102.18201
75   0.07960   0.88604   -0.41963   0.19819   0.07960   0.88604   -0.41963   0.19819   102.23999
76   0.07960   0.88604   -0.41972   0.19697   0.07960   0.88604   -0.41972   0.19697   102.34375
77   0.07953   0.88601   -0.42000   0.19709   0.07953   0.88601   -0.42000   0.19709   102.22168
78   0.07948   0.88598   -0.41945   0.19864   0.07948   0.88598   -0.41945   0.19864   102.15149
79   0.07962   0.88589   -0.41997   0.19724   0.07962   0.88589   -0.41997   0.19724   102.26440
80   0.07967   0.88604   -0.42000   0.19712   0.07967   0.88604   -0.42000   0.19712   102.29797
81   0.07975   0.88601   -0.41957   0.19764   0.07975   0.88601   -0.41957   0.19764   102.19116
82   0.07968   0.88598   -0.41954   0.19807   0.07968   0.88598   -0.41954   0.19807   102.16980
83   0.07962   0.88610   -0.41926   0.19800   0.07962   0.88610   -0.41926   0.19800   102.34375
84   0.07968   0.88601   -0.41935   0.19843   0.07968   0.88601   -0.41935   0.19843   102.27356
85   0.07976   0.88571   -0.41990   0.19837   0.07976   0.88571   -0.41990   0.19837   102.17896
86   0.07969   0.88571   -0.42012   0.19785   0.07969   0.88571   -0.42012   0.19785   102.21558
87   0.07960   0.88583   -0.41981   0.19849   0.07960   0.88583   -0.41981   0.19849   102.27661
88   0.07958   0.88586   -0.41966   0.19825   0.07958   0.88586   -0.41966   0.19825   102.27661
89   0.07969   0.88580   -0.41969   0.19864   0.07969   0.88580   -0.41969   0.19864   102.15759
90   0.07965   0.88610   -0.41920   0.19810   0.07965   0.88610   -0.41920   0.19810   102.23999
91   0.07960   0.88617   -0.41908   0.19840   0.07960   0.88617   -0.41908   0.19840   102.28882
92   0.07968   0.88604   -0.41887   0.19901   0.07968   0.88604   -0.41887   0.19901   102.21558
93   0.07972   0.88522   -0.42106   0.19825   0.07972   0.88522   -0.42106   0.19825   102.22778
94   0.07977   0.88598   -0.41963   0.19825   0.07977   0.88598   -0.41963   0.19825   102.27051
95   0.07978   0.88574   -0.41954   0.19907   0.07978   0.88574   -0.41954   0.19907   102.23694
96   0.07972   0.88531   -0.42091   0.19807   0.07972   0.88531   -0.42091   0.19807   102.19116
97   0.07969   0.88589   -0.41948   0.19892   0.07969   0.88589   -0.41948   0.19892   102.23999
98   0.07971   0.88617   -0.41905   0.19861   0.07971   0.88617   -0.41905   0.19861   102.21558
99   0.07974   0.88653   -0.41816   0.19861   0.07974   0.88653   -0.41816   0.19861   102.17896
100   0.07971   0.88803   -0.41569   0.19733   0.07971   0.88803   -0.41569   0.19733   102.19116
101   0.07965   0.88784   -0.41649   0.19617   0.07965   0.88784   -0.41649   0.19617   102.21863
102   0.07954   0.88794   -0.41581   0.19712   0.07954   0.88794   -0.41581   0.19712   102.22168
103   0.07966   0.88797   -0.41539   0.19773   0.07966   0.88797   -0.41539   0.19773   102.14844
104   0.07958   0.88760   -0.41673   0.19648   0.07958   0.88760   -0.41673   0.19648   102.21863
105   0.07954   0.88739   -0.41719   0.19666   0.07954   0.88739   -0.41719   0.19666   102.31323
106   0.07956   0.88745   -0.41731   0.19669   0.07956   0.88745   -0.41731   0.19669   102.25525
107   0.07974   0.88681   -0.41758   0.19831   0.07974   0.88681   -0.41758   0.19831   102.13318
108   0.07972   0.88714   -0.41734   0.19761   0.07972   0.88714   -0.41734   0.19761   102.18201
109   0.07962   0.88751   -0.41606   0.19843   0.07962   0.88751   -0.41606   0.19843   102.28577
110   0.07974   0.88736   -0.41694   0.19721   0.07974   0.88736   -0.41694   0.19721   102.19116
111   0.07971   0.88708   -0.41783   0.19657   0.07971   0.88708   -0.41783   0.19657   102.16980
112   0.07970   0.88696   -0.41783   0.19700   0.07970   0.88696   -0.41783   0.19700   102.29492
113   0.07962   0.88675   -0.41810   0.19752   0.07962   0.88675   -0.41810   0.19752   102.32239
114   0.07966   0.88733   -0.41670   0.19776   0.07966   0.88733   -0.41670   0.19776   102.19421
115   0.07965   0.88693   -0.41762   0.19749   0.07965   0.88693   -0.41762   0.19749   102.25220
116   0.07957   0.88702   -0.41777   0.19700   0.07957   0.88702   -0.41777   0.19700   102.28882
117   0.07962   0.88717   -0.41719   0.19724   0.07962   0.88717   -0.41719   0.19724   102.29797
118   0.07967   0.88781   -0.41600   0.19749   0.07967   0.88781   -0.41600   0.19749   102.16980
119   0.07969   0.88717   -0.41771   0.19669   0.07969   0.88717   -0.41771   0.19669   102.21558
120   0.07967   0.88668   -0.41838   0.19718   0.07967   0.88668   -0.41838   0.19718   102.23999
121   0.07968   0.88638   -0.41881   0.19825   0.07968   0.88638   -0.41881   0.19825   102.24915
122   0.07971   0.88659   -0.41804   0.19834   0.07971   0.88659   -0.41804   0.19834   102.24915
123   0.07972   0.88638   -0.41862   0.19843   0.07972   0.88638   -0.41862   0.19843   102.22778
124   0.07970   0.88647   -0.41832   0.19849   0.07970   0.88647   -0.41832   0.19849   102.26135
125   0.07974   0.88610   -0.41887   0.19901   0.07974   0.88610   -0.41887   0.19901   102.21558
126   0.07975   0.88662   -0.41868   0.19733   0.07975   0.88662   -0.41868   0.19733   102.21558
127   0.07966   0.88647   -0.41905   0.19733   0.07966   0.88647   -0.41905   0.19733   102.26135
128   0.07966   0.88607   -0.41902   0.19886   0.07966   0.88607   -0.41902   0.19886   102.23999
129   0.07967   0.88601   -0.41926   0.19877   0.07967   0.88601   -0.41926   0.19877   102.20337
130   0.07962   0.88641   -0.41887   0.19776   0.07962   0.88641   -0.41887   0.19776   102.26440
131   0.07963   0.88604   -0.41972   0.19697   0.07963   0.88604   -0.41972   0.19697   102.31018
132   0.07970   0.88629   -0.41932   0.19718   0.07970   0.88629   -0.41932   0.19718   102.22778
133   0.07972   0.88546   -0.42091   0.19730   0.07972   0.88546   -0.42091   0.19730   102.21558
134   0.07964   0.88556   -0.42003   0.19883   0.07964   0.88556   -0.42003   0.19883   102.31018
135   0.07966   0.88604   -0.41954   0.19782   0.07966   0.88604   -0.41954   0.19782   102.27356
136   0.07976   0.88620   -0.41935   0.19749   0.07976   0.88620   -0.41935   0.19749   102.19116
137   0.07978   0.88662   -0.41820   0.19834   0.07978   0.88662   -0.41820   0.19834   102.15454
138   0.07971   0.88617   -0.41951   0.19718   0.07971   0.88617   -0.41951   0.19718   102.27356
139   0.07969   0.88614   -0.41954   0.19721   0.07969   0.88614   -0.41954   0.19721   102.30713
140   0.07980   0.88601   -0.42003   0.19669   0.07980   0.88601   -0.42003   0.19669   102.20032
141   0.07973   0.88604   -0.41972   0.19712   0.07973   0.88604   -0.41972   0.19712   102.22778
142   0.07963   0.88583   -0.42009   0.19773   0.07963   0.88583   -0.42009   0.19773   102.34375
143   0.07957   0.88595   -0.41997   0.19703   0.07957   0.88595   -0.41997   0.19703   102.26440
144   0.07969   0.88556   -0.42082   0.19761   0.07969   0.88556   -0.42082   0.19761   102.19421
145   0.07966   0.88589   -0.42027   0.19703   0.07966   0.88589   -0.42027   0.19703   102.26135
146   0.07962   0.88675   -0.41850   0.19694   0.07962   0.88675   -0.41850   0.19694   102.28577
147   0.07968   0.88595   -0.41978   0.19782   0.07968   0.88595   -0.41978   0.19782   102.26135
148   0.07970   0.88553   -0.42067   0.19745   0.07970   0.88553   -0.42067   0.19745   102.22778
149   0.07972   0.88589   -0.42018   0.19709   0.07972   0.88589   -0.42018   0.19709   102.26135
150   0.07967   0.88629   -0.41939   0.19736   0.07967   0.88629   -0.41939   0.19736   102.28577
151   0.07975   0.88656   -0.41877   0.19755   0.07975   0.88656   -0.41877   0.19755   102.21558
152   0.07976   0.88687   -0.41844   0.19691   0.07976   0.88687   -0.41844   0.19691   102.19116
153   0.07973   0.88638   -0.41899   0.19742   0.07973   0.88638   -0.41899   0.19742   102.22778
154   0.07969   0.88617   -0.41917   0.19861   0.07969   0.88617   -0.41917   0.19861   102.23999
155   0.07972   0.88592   -0.41926   0.19861   0.07972   0.88592   -0.41926   0.19861   102.26135
156   0.07969   0.88620   -0.41917   0.19803   0.07969   0.88620   -0.41917   0.19803   102.23999
157   0.07956   0.88644   -0.41853   0.19785   0.07956   0.88644   -0.41853   0.19785   102.30103
158   0.07953   0.88632   -0.41862   0.19861   0.07953   0.88632   -0.41862   0.19861   102.22168
159   0.07948   0.88662   -0.41816   0.19810   0.07948   0.88662   -0.41816   0.19810   102.22168
160   0.07966   0.88641   -0.41899   0.19749   0.07966   0.88641   -0.41899   0.19749   102.26135
161   0.07973   0.88665   -0.41826   0.19794   0.07973   0.88665   -0.41826   0.19794   102.24915
162   0.07975   0.88638   -0.41862   0.19831   0.07975   0.88638   -0.41862   0.19831   102.19116
163   0.07969   0.88635   -0.41887   0.19761   0.07969   0.88635   -0.41887   0.19761   102.23999
164   0.07966   0.88644   -0.41801   0.19922   0.07966   0.88644   -0.41801   0.19922   102.29797
165   0.07973   0.88641   -0.41896   0.19788   0.07973   0.88641   -0.41896   0.19788   102.20337
166   0.07977   0.88748   -0.41716   0.19633   0.07977   0.88748   -0.41716   0.19633   102.16675
167   0.07969   0.88699   -0.41856   0.19584   0.07969   0.88699   -0.41856   0.19584   102.26135
168   0.07963   0.88687   -0.41838   0.19623   0.07963   0.88687   -0.41838   0.19623   102.31018
169   0.07975   0.88690   -0.41722   0.19916   0.07975   0.88690   -0.41722   0.19916   102.13318
170   0.07969   0.88638   -0.41783   0.19968   0.07969   0.88638   -0.41783   0.19968   102.19421
171   0.07961   0.88684   -0.41789   0.19742   0.07961   0.88684   -0.41789   0.19742   102.28577
172   0.07963   0.88711   -0.41734   0.19776   0.07963   0.88711   -0.41734   0.19776   102.29797
173   0.07973   0.88775   -0.41588   0.19770   0.07973   0.88775   -0.41588   0.19770   102.15759
174   0.07972   0.88763   -0.41643   0.19758   0.07972   0.88763   -0.41643   0.19758   102.21558
175   0.07959   0.88736   -0.41780   0.19581   0.07959   0.88736   -0.41780   0.19581   102.34375
176   0.07962   0.88745   -0.41704   0.19718   0.07962   0.88745   -0.41704   0.19718   102.26440
177   0.07981   0.88748   -0.41600   0.19880   0.07981   0.88748   -0.41600   0.19880   102.15454
178   0.07987   0.88757   -0.41612   0.19837   0.07987   0.88757   -0.41612   0.19837   102.20032
179   0.07966   0.88821   -0.41511   0.19776   0.07966   0.88821   -0.41511   0.19776   102.25220
180   0.07958   0.88739   -0.41615   0.19904   0.07958   0.88739   -0.41615   0.19904   102.20642
181   0.07978   0.88659   -0.41765   0.19895   0.07978   0.88659   -0.41765   0.19895   102.19116
182   0.07982   0.88714   -0.41673   0.19916   0.07982   0.88714   -0.41673   0.19916   102.24609
183   0.07976   0.88739   -0.41691   0.19773   0.07976   0.88739   -0.41691   0.19773   102.27051
184   0.07960   0.88766   -0.41679   0.19669   0.07960   0.88766   -0.41679   0.19669   102.19421
185   0.07958   0.88766   -0.41664   0.19663   0.07958   0.88766   -0.41664   0.19663   102.20642
186   0.07966   0.88730   -0.41704   0.19727   0.07966   0.88730   -0.41704   0.19727   102.25220
187   0.07970   0.88760   -0.41633   0.19742   0.07970   0.88760   -0.41633   0.19742   102.22778
188   0.07974   0.88733   -0.41667   0.19849   0.07974   0.88733   -0.41667   0.19849   102.21558
189   0.07969   0.88714   -0.41746   0.19742   0.07969   0.88714   -0.41746   0.19742   102.24915
190   0.07969   0.88733   -0.41725   0.19718   0.07969   0.88733   -0.41725   0.19718   102.27356
191   0.07975   0.88772   -0.41597   0.19810   0.07975   0.88772   -0.41597   0.19810   102.16980
192   0.07983   0.88769   -0.41591   0.19770   0.07983   0.88769   -0.41591   0.19770   102.20032
193   0.07974   0.88763   -0.41603   0.19779   0.07974   0.88763   -0.41603   0.19779   102.23694
194   0.07979   0.88775   -0.41655   0.19623   0.07979   0.88775   -0.41655   0.19623   102.25830
195   0.07978   0.88763   -0.41664   0.19694   0.07978   0.88763   -0.41664   0.19694   102.13318
196   0.07954   0.88766   -0.41615   0.19755   0.07954   0.88766   -0.41615   0.19755   102.20947
197   0.07956   0.88736   -0.41700   0.19742   0.07956   0.88736   -0.41700   0.19742   102.30103
198   0.07966   0.88726   -0.41688   0.19755   0.07966   0.88726   -0.41688   0.19755   102.25220
199   0.07969   0.88788   -0.41557   0.19782   0.07969   0.88788   -0.41557   0.19782   102.15759
200   0.07955   0.88763   -0.41612   0.19794   0.07955   0.88763   -0.41612   0.19794   102.23083
201   0.07955   0.88754   -0.41594   0.19834   0.07955   0.88754   -0.41594   0.19834   102.31323
202   0.07970   0.88763   -0.41578   0.19874   0.07970   0.88763   -0.41578   0.19874   102.18201
203   0.07976   0.88751   -0.41630   0.19822   0.07976   0.88751   -0.41630   0.19822   102.11182
204   0.07969   0.88772   -0.41621   0.19697   0.07969   0.88772   -0.41621   0.19697   102.21558
205   0.07965   0.88742   -0.41655   0.19782   0.07965   0.88742   -0.41655   0.19782   102.27356
206   0.07976   0.88723   -0.41667   0.19874   0.07976   0.88723   -0.41667   0.19874   102.15759
207   0.07974   0.88748   -0.41624   0.19803   0.07974   0.88748   -0.41624   0.19803   102.21558
208   0.07969   0.88748   -0.41643   0.19810   0.07969   0.88748   -0.41643   0.19810   102.23999
209   0.07967   0.88766   -0.41603   0.19785   0.07967   0.88766   -0.41603   0.19785   102.26135
210   0.07974   0.88833   -0.41496   0.19767   0.07974   0.88833   -0.41496   0.19767   102.21558
211   0.07970   0.88720   -0.41664   0.19843   0.07970   0.88720   -0.41664   0.19843   102.19116
212   0.07957   0.88760   -0.41588   0.19892   0.07957   0.88760   -0.41588   0.19892   102.25220
213   0.07964   0.88723   -0.41661   0.19874   0.07964   0.88723   -0.41661   0.19874   102.20642
214   0.07966   0.88736   -0.41670   0.19800   0.07966   0.88736   -0.41670   0.19800   102.18201
215   0.07969   0.88815   -0.41484   0.19837   0.07969   0.88815   -0.41484   0.19837   102.22778
216   0.07965   0.88809   -0.41496   0.19834   0.07965   0.88809   -0.41496   0.19834   102.25220
217   0.07970   0.88791   -0.41566   0.19816   0.07970   0.88791   -0.41566   0.19816   102.16980
218   0.07970   0.88784   -0.41588   0.19742   0.07970   0.88784   -0.41588   0.19742   102.22778
219   0.07969   0.88800   -0.41566   0.19770   0.07969   0.88800   -0.41566   0.19770   102.24915
220   0.07974   0.88800   -0.41508   0.19843   0.07974   0.88800   -0.41508   0.19843   102.23694
221   0.07978   0.88836   -0.41496   0.19724   0.07978   0.88836   -0.41496   0.19724   102.15454
222   0.07972   0.88803   -0.41560   0.19730   0.07972   0.88803   -0.41560   0.19730   102.23694
223   0.07966   0.88800   -0.41536   0.19800   0.07966   0.88800   -0.41536   0.19800   102.26135
224   0.07972   0.88788   -0.41569   0.19797   0.07972   0.88788   -0.41569   0.19797   102.16980
225   0.07967   0.88791   -0.41533   0.19868   0.07967   0.88791   -0.41533   0.19868   102.20337
226   0.07957   0.88806   -0.41557   0.19767   0.07957   0.88806   -0.41557   0.19767   102.26440
227   0.07963   0.88778   -0.41545   0.19913   0.07963   0.88778   -0.41545   0.19913   102.23999
228   0.07971   0.88812   -0.41441   0.19926   0.07971   0.88812   -0.41441   0.19926   102.13623
229   0.07973   0.88852   -0.41441   0.19807   0.07973   0.88852   -0.41441   0.19807   102.20337
230   0.07963   0.88812   -0.41530   0.19736   0.07963   0.88812   -0.41530   0.19736   102.26440
231   0.07968   0.88739   -0.41649   0.19831   0.07968   0.88739   -0.41649   0.19831   102.24915
232   0.07977   0.88784   -0.41517   0.19883   0.07977   0.88784   -0.41517   0.19883   102.13318
233   0.07974   0.88818   -0.41459   0.19871   0.07974   0.88818   -0.41459   0.19871   102.20337
234   0.07966   0.88797   -0.41520   0.19831   0.07966   0.88797   -0.41520   0.19831   102.27356
235   0.07974   0.88797   -0.41502   0.19874   0.07974   0.88797   -0.41502   0.19874   102.17896
236   0.07979   0.88827   -0.41435   0.19852   0.07979   0.88827   -0.41435   0.19852   102.15454
237   0.07965   0.88852   -0.41453   0.19715   0.07965   0.88852   -0.41453   0.19715   102.22778
238   0.07956   0.88867   -0.41462   0.19645   0.07956   0.88867   -0.41462   0.19645   102.26440
239   0.07963   0.88815   -0.41465   0.19889   0.07963   0.88815   -0.41465   0.19889   102.14844
240   0.07966   0.88839   -0.41414   0.19864   0.07966   0.88839   -0.41414   0.19864   102.16980
241   0.07966   0.88824   -0.41499   0.19721   0.07966   0.88824   -0.41499   0.19721   102.22778
242   0.07962   0.88882   -0.41346   0.19825   0.07962   0.88882   -0.41346   0.19825   102.25220
243   0.07971   0.88836   -0.41429   0.19855   0.07971   0.88836   -0.41429   0.19855   102.16980
244   0.07967   0.88815   -0.41505   0.19810   0.07967   0.88815   -0.41505   0.19810   102.19421
245   0.07966   0.88827   -0.41493   0.19749   0.07966   0.88827   -0.41493   0.19749   102.22778
246   0.07968   0.88800   -0.41502   0.19843   0.07968   0.88800   -0.41502   0.19843   102.20337
247   0.07973   0.88839   -0.41401   0.19861   0.07973   0.88839   -0.41401   0.19861   102.22778
248   0.07973   0.88858   -0.41404   0.19807   0.07973   0.88858   -0.41404   0.19807   102.19116
249   0.07965   0.88839   -0.41447   0.19785   0.07965   0.88839   -0.41447   0.19785   102.23999
250   0.07967   0.88879   -0.41420   0.19715   0.07967   0.88879   -0.41420   0.19715   102.19421
251   0.07963   0.88858   -0.41417   0.19749   0.07963   0.88858   -0.41417   0.19749   102.20642
252   0.07961   0.88806   -0.41484   0.19861   0.07961   0.88806   -0.41484   0.19861   102.25220
253   0.07959   0.88824   -0.41401   0.19913   0.07959   0.88824   -0.41401   0.19913   102.20642
254   0.07963   0.88836   -0.41533   0.19639   0.07963   0.88836   -0.41533   0.19639   102.18201
255   0.07963   0.88833   -0.41432   0.19868   0.07963   0.88833   -0.41432   0.19868   102.25220
256   0.07965   0.88836   -0.41462   0.19776   0.07965   0.88836   -0.41462   0.19776   102.25220
257   0.07970   0.88812   -0.41456   0.19861   0.07970   0.88812   -0.41456   0.19861   102.20337
258   0.07974   0.88855   -0.41359   0.19883   0.07974   0.88855   -0.41359   0.19883   102.15759
259   0.07979   0.88821   -0.41484   0.19825   0.07979   0.88821   -0.41484   0.19825   102.21252
260   0.07973   0.88855   -0.41411   0.19819   0.07973   0.88855   -0.41411   0.19819   102.27356
261   0.07975   0.88858   -0.41404   0.19785   0.07975   0.88858   -0.41404   0.19785   102.17896
262   0.07974   0.88827   -0.41435   0.19889   0.07974   0.88827   -0.41435   0.19889   102.16980
263   0.07973   0.88815   -0.41508   0.19797   0.07973   0.88815   -0.41508   0.19797   102.27356
264   0.07965   0.88836   -0.41423   0.19874   0.07965   0.88836   -0.41423   0.19874   102.27356
265   0.07972   0.88794   -0.41481   0.19935   0.07972   0.88794   -0.41481   0.19935   102.12402
266   0.07966   0.88824   -0.41426   0.19910   0.07966   0.88824   -0.41426   0.19910   102.19421
267   0.07954   0.88858   -0.41414   0.19810   0.07954   0.88858   -0.41414   0.19810   102.28882
268   0.07965   0.88830   -0.41383   0.19959   0.07965   0.88830   -0.41383   0.19959   102.22778
269   0.07967   0.88791   -0.41502   0.19883   0.07967   0.88791   -0.41502   0.19883   102.18201
270   0.07967   0.88849   -0.41368   0.19889   0.07967   0.88849   -0.41368   0.19889   102.19421
271   0.07965   0.88824   -0.41444   0.19855   0.07965   0.88824   -0.41444   0.19855   102.25220
272   0.07970   0.88842   -0.41386   0.19919   0.07970   0.88842   -0.41386   0.19919   102.19116
273   0.07974   0.88888   -0.41288   0.19907   0.07974   0.88888   -0.41288   0.19907   102.13318
274   0.07967   0.88919   -0.41346   0.19663   0.07967   0.88919   -0.41346   0.19663   102.20337
275   0.07968   0.88864   -0.41374   0.19864   0.07968   0.88864   -0.41374   0.19864   102.24915
276   0.07972   0.88849   -0.41359   0.19962   0.07972   0.88849   -0.41359   0.19962   102.16980
277   0.07968   0.88806   -0.41462   0.19935   0.07968   0.88806   -0.41462   0.19935   102.16980
278   0.07942   0.88815   -0.41520   0.19742   0.07942   0.88815   -0.41520   0.19742   102.23389
279   0.07958   0.88842   -0.41368   0.19993   0.07958   0.88842   -0.41368   0.19993   102.17285
280   0.07972   0.88925   -0.41279   0.19803   0.07972   0.88925   -0.41279   0.19803   102.16980
281   0.07966   0.88894   -0.41331   0.19797   0.07966   0.88894   -0.41331   0.19797   102.23999
282   0.07954   0.88876   -0.41298   0.19950   0.07954   0.88876   -0.41298   0.19950   102.20947
283   0.07962   0.88879   -0.41279   0.19947   0.07962   0.88879   -0.41279   0.19947   102.12708
284   0.07966   0.88873   -0.41340   0.19868   0.07966   0.88873   -0.41340   0.19868   102.19421
285   0.07967   0.88879   -0.41328   0.19828   0.07967   0.88879   -0.41328   0.19828   102.25220
286   0.07967   0.88882   -0.41310   0.19938   0.07967   0.88882   -0.41310   0.19938   102.20337
287   0.07972   0.88849   -0.41350   0.19944   0.07972   0.88849   -0.41350   0.19944   102.14539
288   0.07971   0.88833   -0.41392   0.19938   0.07971   0.88833   -0.41392   0.19938   102.21558
289   0.07967   0.88842   -0.41414   0.19877   0.07967   0.88842   -0.41414   0.19877   102.27356
290   0.07971   0.88812   -0.41472   0.19852   0.07971   0.88812   -0.41472   0.19852   102.20337
291   0.07979   0.88839   -0.41441   0.19773   0.07979   0.88839   -0.41441   0.19773   102.15454
292   0.07967   0.88824   -0.41398   0.19980   0.07967   0.88824   -0.41398   0.19980   102.25220
293   0.07964   0.88839   -0.41389   0.19886   0.07964   0.88839   -0.41389   0.19886   102.25220
294   0.07974   0.88888   -0.41288   0.19929   0.07974   0.88888   -0.41288   0.19929   102.12402
295   0.07975   0.88870   -0.41343   0.19877   0.07975   0.88870   -0.41343   0.19877   102.13318
296   0.07959   0.88885   -0.41255   0.19974   0.07959   0.88885   -0.41255   0.19974   102.28882
297   0.07965   0.88867   -0.41337   0.19871   0.07965   0.88867   -0.41337   0.19871   102.29797
298   0.07980   0.88861   -0.41343   0.19889   0.07980   0.88861   -0.41343   0.19889   102.13318
299   0.07978   0.88873   -0.41273   0.19971   0.07978   0.88873   -0.41273   0.19971   102.17896
300   0.07967   0.88879   -0.41322   0.19861   0.07967   0.88879   -0.41322   0.19861   102.27356
301   0.07974   0.88861   -0.41362   0.19861   0.07974   0.88861   -0.41362   0.19861   102.20337
302   0.07982   0.88922   -0.41224   0.19904   0.07982   0.88922   -0.41224   0.19904   102.10876
303   0.07976   0.88824   -0.41401   0.19935   0.07976   0.88824   -0.41401   0.19935   102.16675
304   0.07971   0.88907   -0.41258   0.19874   0.07971   0.88907   -0.41258   0.19874   102.23694
305   0.07973   0.88855   -0.41411   0.19810   0.07973   0.88855   -0.41411   0.19810   102.17896
306   0.07974   0.88867   -0.41362   0.19886   0.07974   0.88867   -0.41362   0.19886   102.12402
307   0.07966   0.88876   -0.41356   0.19840   0.07966   0.88876   -0.41356   0.19840   102.19421
308   0.07957   0.88891   -0.41304   0.19904   0.07957   0.88891   -0.41304   0.19904   102.25220
309   0.07969   0.88870   -0.41295   0.19938   0.07969   0.88870   -0.41295   0.19938   102.15759
310   0.07966   0.88879   -0.41285   0.19968   0.07966   0.88879   -0.41285   0.19968   102.14844
311   0.07963   0.88852   -0.41337   0.19990   0.07963   0.88852   -0.41337   0.19990   102.25220
312   0.07966   0.88836   -0.41362   0.20005   0.07966   0.88836   -0.41362   0.20005   102.19421
313   0.07968   0.88882   -0.41285   0.19910   0.07968   0.88882   -0.41285   0.19910   102.15759
314   0.07972   0.88876   -0.41395   0.19791   0.07972   0.88876   -0.41395   0.19791   102.21558
315   0.07966   0.88919   -0.41371   0.19623   0.07966   0.88919   -0.41371   0.19623   102.18201
316   0.07972   0.88876   -0.41411   0.19721   0.07972   0.88876   -0.41411   0.19721   102.14539
317   0.07968   0.88870   -0.41420   0.19742   0.07968   0.88870   -0.41420   0.19742   102.14844
318   0.07961   0.88827   -0.41536   0.19706   0.07961   0.88827   -0.41536   0.19706   102.23083
319   0.07957   0.88867   -0.41411   0.19794   0.07957   0.88867   -0.41411   0.19794   102.21863
320   0.07972   0.88849   -0.41386   0.19898   0.07972   0.88849   -0.41386   0.19898   102.11182
321   0.07963   0.88910   -0.41295   0.19828   0.07963   0.88910   -0.41295   0.19828   102.16064
322   0.07955   0.88891   -0.41331   0.19819   0.07955   0.88891   -0.41331   0.19819   102.25525
323   0.07962   0.88842   -0.41371   0.19980   0.07962   0.88842   -0.41371   0.19980   102.23083
324   0.07967   0.88925   -0.41224   0.19883   0.07967   0.88925   -0.41224   0.19883   102.12402
325   0.07966   0.88894   -0.41304   0.19831   0.07966   0.88894   -0.41304   0.19831   102.18201
326   0.07960   0.88864   -0.41365   0.19843   0.07960   0.88864   -0.41365   0.19843   102.28882
327   0.07970   0.88861   -0.41383   0.19886   0.07970   0.88861   -0.41383   0.19886   102.18201
328   0.07974   0.88888   -0.41285   0.19910   0.07974   0.88888   -0.41285   0.19910   102.15759
329   0.07967   0.88925   -0.41231   0.19883   0.07967   0.88925   -0.41231   0.19883   102.18201
330   0.07964   0.88885   -0.41301   0.19907   0.07964   0.88885   -0.41301   0.19907   102.26440
331   0.07972   0.88873   -0.41313   0.19953   0.07972   0.88873   -0.41313   0.19953   102.18201
332   0.07979   0.88879   -0.41288   0.19929   0.07979   0.88879   -0.41288   0.19929   102.16675
333   0.07968   0.88845   -0.41362   0.19898   0.07968   0.88845   -0.41362   0.19898   102.26135
334   0.07961   0.88897   -0.41279   0.19892   0.07961   0.88897   -0.41279   0.19892   102.23999
335   0.07964   0.88830   -0.41462   0.19807   0.07964   0.88830   -0.41462   0.19807   102.19421
336   0.07967   0.88888   -0.41295   0.19886   0.07967   0.88888   -0.41295   0.19886   102.14844
337   0.07960   0.88867   -0.41362   0.19904   0.07960   0.88867   -0.41362   0.19904   102.26440
338   0.07964   0.88876   -0.41319   0.19956   0.07964   0.88876   -0.41319   0.19956   102.20642
339   0.07968   0.88885   -0.41307   0.19926   0.07968   0.88885   -0.41307   0.19926   102.16980
340   0.07965   0.88949   -0.41234   0.19761   0.07965   0.88949   -0.41234   0.19761   102.14844
341   0.07969   0.88903   -0.41298   0.19849   0.07969   0.88903   -0.41298   0.19849   102.23999
342   0.07972   0.88873   -0.41334   0.19929   0.07972   0.88873   -0.41334   0.19929   102.16980
343   0.07974   0.88858   -0.41386   0.19810   0.07974   0.88858   -0.41386   0.19810   102.20337
344   0.07971   0.88916   -0.41234   0.19922   0.07971   0.88916   -0.41234   0.19922   102.20337
345   0.07966   0.88891   -0.41285   0.19895   0.07966   0.88891   -0.41285   0.19895   102.21558
346   0.07978   0.88897   -0.41273   0.19922   0.07978   0.88897   -0.41273   0.19922   102.13318
347   0.07966   0.88876   -0.41276   0.19984   0.07966   0.88876   -0.41276   0.19984   102.23999
348   0.07964   0.88858   -0.41374   0.19864   0.07964   0.88858   -0.41374   0.19864   102.23999
349   0.07966   0.88858   -0.41328   0.19935   0.07966   0.88858   -0.41328   0.19935   102.18201
350   0.07974   0.88867   -0.41328   0.19904   0.07974   0.88867   -0.41328   0.19904   102.14539
351   0.07962   0.88897   -0.41279   0.19892   0.07962   0.88897   -0.41279   0.19892   102.23083
352   0.07962   0.88900   -0.41365   0.19724   0.07962   0.88900   -0.41365   0.19724   102.23999
353   0.07966   0.88925   -0.41258   0.19773   0.07966   0.88925   -0.41258   0.19773   102.18201
354   0.07973   0.88882   -0.41368   0.19807   0.07973   0.88882   -0.41368   0.19807   102.13318
355   0.07967   0.88900   -0.41288   0.19846   0.07967   0.88900   -0.41288   0.19846   102.23999
356   0.07962   0.88882   -0.41404   0.19703   0.07962   0.88882   -0.41404   0.19703   102.23999
357   0.07978   0.88858   -0.41337   0.19919   0.07978   0.88858   -0.41337   0.19919   102.10876
358   0.07955   0.88842   -0.41371   0.19922   0.07955   0.88842   -0.41371   0.19922   102.19727
359   0.07953   0.88839   -0.41423   0.19901   0.07953   0.88839   -0.41423   0.19901   102.23083
360   0.07973   0.88809   -0.41444   0.19965   0.07973   0.88809   -0.41444   0.19965   102.24915
361   0.07986   0.88900   -0.41261   0.19889   0.07986   0.88900   -0.41261   0.19889   102.12097
362   0.07971   0.88913   -0.41295   0.19803   0.07971   0.88913   -0.41295   0.19803   102.18201
363   0.07954   0.88864   -0.41337   0.19895   0.07954   0.88864   -0.41337   0.19895   102.31323
364   0.07967   0.88855   -0.41371   0.19852   0.07967   0.88855   -0.41371   0.19852   102.23999
365   0.07978   0.88836   -0.41408   0.19886   0.07978   0.88836   -0.41408   0.19886   102.14539
366   0.07974   0.88897   -0.41282   0.19880   0.07974   0.88897   -0.41282   0.19880   102.22473
367   0.07968   0.88870   -0.41383   0.19816   0.07968   0.88870   -0.41383   0.19816   102.28577
368   0.07973   0.88903   -0.41243   0.19965   0.07973   0.88903   -0.41243   0.19965   102.19116
369   0.07975   0.88879   -0.41438   0.19684   0.07975   0.88879   -0.41438   0.19684   102.12097
370   0.07973   0.88891   -0.41307   0.19849   0.07973   0.88891   -0.41307   0.19849   102.24915
371   0.07967   0.88864   -0.41420   0.19709   0.07967   0.88864   -0.41420   0.19709   102.22778
372   0.07974   0.88815   -0.41429   0.19932   0.07974   0.88815   -0.41429   0.19932   102.17896
373   0.07975   0.88827   -0.41435   0.19849   0.07975   0.88827   -0.41435   0.19849   102.16980
374   0.07970   0.88864   -0.41359   0.19864   0.07970   0.88864   -0.41359   0.19864   102.22778
375   0.07969   0.88873   -0.41334   0.19874   0.07969   0.88873   -0.41334   0.19874   102.21558
376   0.07967   0.88855   -0.41343   0.19932   0.07967   0.88855   -0.41343   0.19932   102.18201
377   0.07969   0.88858   -0.41371   0.19877   0.07969   0.88858   -0.41371   0.19877   102.20337
378   0.07977   0.88845   -0.41392   0.19877   0.07977   0.88845   -0.41392   0.19877   102.21252
379   0.07969   0.88861   -0.41334   0.19919   0.07969   0.88861   -0.41334   0.19919   102.19421
380   0.07960   0.88870   -0.41353   0.19864   0.07960   0.88870   -0.41353   0.19864   102.18506
381   0.07969   0.88849   -0.41377   0.19871   0.07969   0.88849   -0.41377   0.19871   102.24915
382   0.07981   0.88858   -0.41462   0.19687   0.07981   0.88858   -0.41462   0.19687   102.17896
383   0.07984   0.88818   -0.41490   0.19813   0.07984   0.88818   -0.41490   0.19813   102.14233
384   0.07968   0.88870   -0.41447   0.19666   0.07968   0.88870   -0.41447   0.19666   102.21558
385   0.07961   0.88830   -0.41530   0.19666   0.07961   0.88830   -0.41530   0.19666   102.25220
386   0.07973   0.88778   -0.41469   0.20011   0.07973   0.88778   -0.41469   0.20011   102.19116
387   0.07981   0.88815   -0.41438   0.19950   0.07981   0.88815   -0.41438   0.19950   102.15454
388   0.07967   0.88858   -0.41404   0.19782   0.07967   0.88858   -0.41404   0.19782   102.22778
389   0.07960   0.88849   -0.41398   0.19868   0.07960   0.88849   -0.41398   0.19868   102.26440
390   0.07966   0.88873   -0.41334   0.19868   0.07966   0.88873   -0.41334   0.19868   102.13623
391   0.07969   0.88797   -0.41441   0.20032   0.07969   0.88797   -0.41441   0.20032   102.13623
392   0.07963   0.88812   -0.41456   0.19901   0.07963   0.88812   -0.41456   0.19901   102.25220
393   0.07965   0.88812   -0.41450   0.19922   0.07965   0.88812   -0.41450   0.19922   102.25220
394   0.07988   0.88885   -0.41325   0.19825   0.07988   0.88885   -0.41325   0.19825   102.13013
395   0.07972   0.88873   -0.41392   0.19797   0.07972   0.88873   -0.41392   0.19797   102.16980
396   0.07947   0.88797   -0.41472   0.19926   0.07947   0.88797   -0.41472   0.19926   102.27966
397   0.07954   0.88772   -0.41508   0.19977   0.07954   0.88772   -0.41508   0.19977   102.23083
398   0.07983   0.88815   -0.41417   0.19993   0.07983   0.88815   -0.41417   0.19993   102.14233
399   0.07976   0.88852   -0.41371   0.19922   0.07976   0.88852   -0.41371   0.19922   102.16675
400   0.07960   0.88775   -0.41530   0.19904   0.07960   0.88775   -0.41530   0.19904   102.28882
401   0.07966   0.88769   -0.41520   0.19965   0.07966   0.88769   -0.41520   0.19965   102.18201
402   0.07976   0.88778   -0.41484   0.19996   0.07976   0.88778   -0.41484   0.19996   102.15759
403   0.07968   0.88794   -0.41505   0.19883   0.07968   0.88794   -0.41505   0.19883   102.22778
404   0.07952   0.88836   -0.41353   0.20011   0.07952   0.88836   -0.41353   0.20011   102.26746
405   0.07964   0.88821   -0.41365   0.20048   0.07964   0.88821   -0.41365   0.20048   102.18201
406   0.07967   0.88745   -0.41527   0.20051   0.07967   0.88745   -0.41527   0.20051   102.18201
407   0.07967   0.88784   -0.41441   0.20057   0.07967   0.88784   -0.41441   0.20057   102.22778
408   0.07969   0.88791   -0.41548   0.19807   0.07969   0.88791   -0.41548   0.19807   102.20337
409   0.07972   0.88772   -0.41536   0.19938   0.07972   0.88772   -0.41536   0.19938   102.14539
410   0.07971   0.88806   -0.41456   0.19926   0.07971   0.88806   -0.41456   0.19926   102.20337
411   0.07970   0.88781   -0.41554   0.19822   0.07970   0.88781   -0.41554   0.19822   102.22778
412   0.07977   0.88800   -0.41462   0.19938   0.07977   0.88800   -0.41462   0.19938   102.15759
413   0.07976   0.88791   -0.41493   0.19898   0.07976   0.88791   -0.41493   0.19898   102.17896
414   0.07971   0.88809   -0.41484   0.19883   0.07971   0.88809   -0.41484   0.19883   102.24915
415   0.07967   0.88788   -0.41478   0.19977   0.07967   0.88788   -0.41478   0.19977   102.22778
416   0.07973   0.88775   -0.41517   0.19919   0.07973   0.88775   -0.41517   0.19919   102.12402
417   0.07967   0.88791   -0.41511   0.19907   0.07967   0.88791   -0.41511   0.19907   102.21558
418   0.07956   0.88788   -0.41523   0.19858   0.07956   0.88788   -0.41523   0.19858   102.27661
419   0.07966   0.88784   -0.41502   0.19971   0.07966   0.88784   -0.41502   0.19971   102.20642
420   0.07970   0.88794   -0.41478   0.19944   0.07970   0.88794   -0.41478   0.19944   102.13623
421   0.07968   0.88818   -0.41441   0.19938   0.07968   0.88818   -0.41441   0.19938   102.23999
422   0.07960   0.88809   -0.41493   0.19858   0.07960   0.88809   -0.41493   0.19858   102.29797
423   0.07970   0.88815   -0.41408   0.19971   0.07970   0.88815   -0.41408   0.19971   102.23999
424   0.07978   0.88815   -0.41450   0.19919   0.07978   0.88815   -0.41450   0.19919   102.12097
425   0.07969   0.88824   -0.41414   0.19950   0.07969   0.88824   -0.41414   0.19950   102.24915
426   0.07967   0.88788   -0.41472   0.19968   0.07967   0.88788   -0.41472   0.19968   102.29797
427   0.07976   0.88769   -0.41517   0.19987   0.07976   0.88769   -0.41517   0.19987   102.12097
428   0.07978   0.88809   -0.41453   0.19944   0.07978   0.88809   -0.41453   0.19944   102.13318
429   0.07967   0.88781   -0.41514   0.19941   0.07967   0.88781   -0.41514   0.19941   102.25220
430   0.07966   0.88824   -0.41456   0.19895   0.07966   0.88824   -0.41456   0.19895   102.22778
431   0.07966   0.88788   -0.41496   0.19898   0.07966   0.88788   -0.41496   0.19898   102.14844
432   0.07967   0.88766   -0.41530   0.19944   0.07967   0.88766   -0.41530   0.19944   102.15759
433   0.07962   0.88839   -0.41411   0.19898   0.07962   0.88839   -0.41411   0.19898   102.25220
434   0.07963   0.88726   -0.41603   0.19959   0.07963   0.88726   -0.41603   0.19959   102.21863
435   0.07972   0.88791   -0.41496   0.19901   0.07972   0.88791   -0.41496   0.19901   102.14539
436   0.07971   0.88754   -0.41563   0.19932   0.07971   0.88754   -0.41563   0.19932   102.21558
437   0.07968   0.88760   -0.41554   0.19922   0.07968   0.88760   -0.41554   0.19922   102.24915
438   0.07970   0.88726   -0.41633   0.19922   0.07970   0.88726   -0.41633   0.19922   102.18201
439   0.07974   0.88754   -0.41585   0.19904   0.07974   0.88754   -0.41585   0.19904   102.16980
440   0.07971   0.88760   -0.41612   0.19785   0.07971   0.88760   -0.41612   0.19785   102.22778
441   0.07971   0.88763   -0.41585   0.19886   0.07971   0.88763   -0.41585   0.19886   102.22778
442   0.07978   0.88730   -0.41606   0.19941   0.07978   0.88730   -0.41606   0.19941   102.15454
443   0.07970   0.88763   -0.41560   0.19877   0.07970   0.88763   -0.41560   0.19877   102.20337
444   0.07965   0.88705   -0.41685   0.19898   0.07965   0.88705   -0.41685   0.19898   102.27356
445   0.07964   0.88733   -0.41603   0.19990   0.07964   0.88733   -0.41603   0.19990   102.13623
446   0.07962   0.88742   -0.41557   0.20014   0.07962   0.88742   -0.41557   0.20014   102.19421
447   0.07964   0.88784   -0.41520   0.19913   0.07964   0.88784   -0.41520   0.19913   102.21863
448   0.07963   0.88806   -0.41465   0.19922   0.07963   0.88806   -0.41465   0.19922   102.20642
449   0.07970   0.88760   -0.41551   0.19968   0.07970   0.88760   -0.41551   0.19968   102.12402
450   0.07970   0.88763   -0.41563   0.19880   0.07970   0.88763   -0.41563   0.19880   102.16980
451   0.07966   0.88748   -0.41658   0.19813   0.07966   0.88748   -0.41658   0.19813   102.23999
452   0.07962   0.88757   -0.41588   0.19840   0.07962   0.88757   -0.41588   0.19840   102.25220
453   0.07971   0.88803   -0.41563   0.19712   0.07971   0.88803   -0.41563   0.19712   102.12402
454   0.07969   0.88760   -0.41615   0.19813   0.07969   0.88760   -0.41615   0.19813   102.20337
455   0.07964   0.88699   -0.41734   0.19837   0.07964   0.88699   -0.41734   0.19837   102.26440
456   0.07971   0.88702   -0.41725   0.19807   0.07971   0.88702   -0.41725   0.19807   102.22778
457   0.07973   0.88690   -0.41728   0.19910   0.07973   0.88690   -0.41728   0.19910   102.13318
458   0.07967   0.88733   -0.41606   0.19935   0.07967   0.88733   -0.41606   0.19935   102.23999
459   0.07966   0.88748   -0.41606   0.19874   0.07966   0.88748   -0.41606   0.19874   102.28577
460   0.07974   0.88702   -0.41688   0.19895   0.07974   0.88702   -0.41688   0.19895   102.17896
461   0.07966   0.88739   -0.41600   0.19883   0.07966   0.88739   -0.41600   0.19883   102.13623
462   0.07959   0.88687   -0.41710   0.19919   0.07959   0.88687   -0.41710   0.19919   102.29797
463   0.07966   0.88757   -0.41594   0.19883   0.07966   0.88757   -0.41594   0.19883   102.26135
464   0.07970   0.88641   -0.41859   0.19810   0.07970   0.88641   -0.41859   0.19810   102.23999
465   0.07968   0.88705   -0.41728   0.19822   0.07968   0.88705   -0.41728   0.19822   102.21558
466   0.07963   0.88736   -0.41661   0.19849   0.07963   0.88736   -0.41661   0.19849   102.22778
467   0.07967   0.88668   -0.41813   0.19831   0.07967   0.88668   -0.41813   0.19831   102.26135
468   0.07970   0.88687   -0.41746   0.19840   0.07970   0.88687   -0.41746   0.19840   102.20337
469   0.07969   0.88681   -0.41765   0.19858   0.07969   0.88681   -0.41765   0.19858   102.24915
470   0.07964   0.88699   -0.41731   0.19819   0.07964   0.88699   -0.41731   0.19819   102.29797
471   0.07966   0.88647   -0.41856   0.19822   0.07966   0.88647   -0.41856   0.19822   102.25220
472   0.07959   0.88696   -0.41771   0.19758   0.07959   0.88696   -0.41771   0.19758   102.20642
473   0.07957   0.88705   -0.41758   0.19724   0.07957   0.88705   -0.41758   0.19724   102.25220
474   0.07962   0.88687   -0.41716   0.19861   0.07962   0.88687   -0.41716   0.19861   102.25220
475   0.07965   0.88711   -0.41710   0.19816   0.07965   0.88711   -0.41710   0.19816   102.18201
476   0.07965   0.88699   -0.41752   0.19794   0.07965   0.88699   -0.41752   0.19794   102.23999
477   0.07952   0.88726   -0.41679   0.19822   0.07952   0.88726   -0.41679   0.19822   102.28882
478   0.07940   0.88672   -0.41783   0.19828   0.07940   0.88672   -0.41783   0.19828   102.23694
479   0.07966   0.88714   -0.41688   0.19868   0.07966   0.88714   -0.41688   0.19868   102.16980
480   0.07978   0.88656   -0.41832   0.19803   0.07978   0.88656   -0.41832   0.19803   102.23694
481   0.07962   0.88693   -0.41832   0.19636   0.07962   0.88693   -0.41832   0.19636   102.28577
482   0.07965   0.88687   -0.41755   0.19831   0.07965   0.88687   -0.41755   0.19831   102.18201
483   0.07967   0.88705   -0.41734   0.19831   0.07967   0.88705   -0.41734   0.19831   102.15759
484   0.07963   0.88711   -0.41719   0.19837   0.07963   0.88711   -0.41719   0.19837   102.27661
485   0.07958   0.88647   -0.41826   0.19895   0.07958   0.88647   -0.41826   0.19895   102.28882
486   0.07960   0.88647   -0.41826   0.19846   0.07960   0.88647   -0.41826   0.19846   102.18506
487   0.07960   0.88656   -0.41783   0.19904   0.07960   0.88656   -0.41783   0.19904   102.13928
488   0.07957   0.88668   -0.41792   0.19834   0.07957   0.88668   -0.41792   0.19834   102.26440
489   0.07964   0.88675   -0.41795   0.19761   0.07964   0.88675   -0.41795   0.19761   102.28577
490   0.07973   0.88662   -0.41847   0.19749   0.07973   0.88662   -0.41847   0.19749   102.15759
491   0.07966   0.88668   -0.41786   0.19800   0.07966   0.88668   -0.41786   0.19800   102.23999
492   0.07958   0.88678   -0.41740   0.19874   0.07958   0.88678   -0.41740   0.19874   102.31018
493   0.07969   0.88656   -0.41850   0.19761   0.07969   0.88656   -0.41850   0.19761   102.22778
494   0.07983   0.88687   -0.41783   0.19794   0.07983   0.88687   -0.41783   0.19794   102.18811
495   0.07979   0.88696   -0.41795   0.19739   0.07979   0.88696   -0.41795   0.19739   102.21252
496   0.07969   0.88662   -0.41835   0.19736   0.07969   0.88662   -0.41835   0.19736   102.30713
497   0.07976   0.88665   -0.41755   0.19941   0.07976   0.88665   -0.41755   0.19941   102.21558
498   0.07980   0.88665   -0.41810   0.19791   0.07980   0.88665   -0.41810   0.19791   102.19116
499   0.07967   0.88714   -0.41725   0.19776   0.07967   0.88714   -0.41725   0.19776   102.29797
500   0.07962   0.88659   -0.41795   0.19864   0.07962   0.88659   -0.41795   0.19864   102.28577
501   0.07967   0.88717   -0.41792   0.19639   0.07967   0.88717   -0.41792   0.19639   102.18201
502   0.07964   0.88791   -0.41704   0.19462   0.07964   0.88791   -0.41704   0.19462   102.20642
503   0.07961   0.88772   -0.41682   0.19620   0.07961   0.88772   -0.41682   0.19620   102.23083
504   0.07961   0.88760   -0.41719   0.19593   0.07961   0.88760   -0.41719   0.19593   102.21863
505   0.07970   0.88748   -0.41646   0.19776   0.07970   0.88748   -0.41646   0.19776   102.20337
506   0.07971   0.88726   -0.41716   0.19742   0.07971   0.88726   -0.41716   0.19742   102.22778
507   0.07966   0.88769   -0.41639   0.19684   0.07966   0.88769   -0.41639   0.19684   102.28577
508   0.07972   0.88739   -0.41743   0.19642   0.07972   0.88739   -0.41743   0.19642   102.21558
509   0.07960   0.88791   -0.41652   0.19596   0.07960   0.88791   -0.41652   0.19596   102.32239
510   0.07965   0.88791   -0.41676   0.19523   0.07965   0.88791   -0.41676   0.19523   102.27356
511   0.07960   0.88784   -0.41667   0.19584   0.07960   0.88784   -0.41667   0.19584   102.29797
512   0.07966   0.88745   -0.41719   0.19700   0.07966   0.88745   -0.41719   0.19700   102.12402
513   0.07958   0.88754   -0.41639   0.19761   0.07958   0.88754   -0.41639   0.19761   102.23083
514   0.07955   0.88754   -0.41633   0.19779   0.07955   0.88754   -0.41633   0.19779   102.28882
515   0.07967   0.88736   -0.41731   0.19660   0.07967   0.88736   -0.41731   0.19660   102.23999
516   0.07967   0.88763   -0.41688   0.19669   0.07967   0.88763   -0.41688   0.19669   102.18201
517   0.07966   0.88736   -0.41762   0.19639   0.07966   0.88736   -0.41762   0.19639   102.26135
518   0.07961   0.88708   -0.41719   0.19803   0.07961   0.88708   -0.41719   0.19803   102.32239
519   0.07966   0.88781   -0.41627   0.19712   0.07966   0.88781   -0.41627   0.19712   102.23999
520   0.07977   0.88736   -0.41710   0.19736   0.07977   0.88736   -0.41710   0.19736   102.15759
521   0.07968   0.88772   -0.41597   0.19800   0.07968   0.88772   -0.41597   0.19800   102.26135
522   0.07968   0.88757   -0.41676   0.19700   0.07968   0.88757   -0.41676   0.19700   102.31934
523   0.07983   0.88717   -0.41746   0.19715   0.07983   0.88717   -0.41746   0.19715   102.12097
524   0.07975   0.88726   -0.41780   0.19596   0.07975   0.88726   -0.41780   0.19596   102.15759
525   0.07959   0.88736   -0.41771   0.19556   0.07959   0.88736   -0.41771   0.19556   102.31018
526   0.07959   0.88791   -0.41600   0.19681   0.07959   0.88791   -0.41600   0.19681   102.21863
527   0.07959   0.88784   -0.41646   0.19654   0.07959   0.88784   -0.41646   0.19654   102.17285
528   0.07961   0.88739   -0.41746   0.19596   0.07961   0.88739   -0.41746   0.19596   102.19421
529   0.07952   0.88748   -0.41734   0.19614   0.07952   0.88748   -0.41734   0.19614   102.27966
530   0.07963   0.88687   -0.41786   0.19770   0.07963   0.88687   -0.41786   0.19770   102.22778
531   0.07970   0.88705   -0.41728   0.19755   0.07970   0.88705   -0.41728   0.19755   102.20337
532   0.07967   0.88714   -0.41716   0.19803   0.07967   0.88714   -0.41716   0.19803   102.25220
533   0.07970   0.88693   -0.41786   0.19749   0.07970   0.88693   -0.41786   0.19749   102.26135
534   0.07966   0.88717   -0.41792   0.19617   0.07966   0.88717   -0.41792   0.19617   102.20642
535   0.07967   0.88769   -0.41679   0.19599   0.07967   0.88769   -0.41679   0.19599   102.25220
536   0.07965   0.88766   -0.41697   0.19636   0.07965   0.88766   -0.41697   0.19636   102.25220
537   0.07970   0.88687   -0.41755   0.19868   0.07970   0.88687   -0.41755   0.19868   102.23999
538   0.07970   0.88778   -0.41670   0.19596   0.07970   0.88778   -0.41670   0.19596   102.19116
539   0.07966   0.88742   -0.41704   0.19709   0.07966   0.88742   -0.41704   0.19709   102.26135
540   0.07965   0.88739   -0.41716   0.19663   0.07965   0.88739   -0.41716   0.19663   102.25220
541   0.07963   0.88733   -0.41710   0.19691   0.07963   0.88733   -0.41710   0.19691   102.21863
542   0.07970   0.88711   -0.41755   0.19727   0.07970   0.88711   -0.41755   0.19727   102.20337
543   0.07959   0.88708   -0.41795   0.19669   0.07959   0.88708   -0.41795   0.19669   102.32239
544   0.07958   0.88745   -0.41765   0.19562   0.07958   0.88745   -0.41765   0.19562   102.27661
545   0.07971   0.88720   -0.41710   0.19800   0.07971   0.88720   -0.41710   0.19800   102.16980
546   0.07970   0.88720   -0.41743   0.19709   0.07970   0.88720   -0.41743   0.19709   102.22778
547   0.07966   0.88723   -0.41719   0.19767   0.07966   0.88723   -0.41719   0.19767   102.27356
548   0.07968   0.88705   -0.41774   0.19715   0.07968   0.88705   -0.41774   0.19715   102.26135
549   0.07982   0.88693   -0.41798   0.19736   0.07982   0.88693   -0.41798   0.19736   102.15454
550   0.07975   0.88748   -0.41639   0.19782   0.07975   0.88748   -0.41639   0.19782   102.21558
551   0.07970   0.88702   -0.41768   0.19773   0.07970   0.88702   -0.41768   0.19773   102.29492
552   0.07974   0.88717   -0.41737   0.19742   0.07974   0.88717   -0.41737   0.19742   102.24915
553   0.07978   0.88742   -0.41737   0.19657   0.07978   0.88742   -0.41737   0.19657   102.15759
554   0.07965   0.88705   -0.41762   0.19742   0.07965   0.88705   -0.41762   0.19742   102.26440
555   0.07956   0.88711   -0.41746   0.19727   0.07956   0.88711   -0.41746   0.19727   102.30103
556   0.07971   0.88696   -0.41792   0.19727   0.07971   0.88696   -0.41792   0.19727   102.18201
557   0.07969   0.88681   -0.41829   0.19724   0.07969   0.88681   -0.41829   0.19724   102.18201
558   0.07944   0.88763   -0.41673   0.19654   0.07944   0.88763   -0.41673   0.19654   102.30408
559   0.07948   0.88678   -0.41777   0.19819   0.07948   0.88678   -0.41777   0.19819   102.26746
560   0.07977   0.88730   -0.41728   0.19724   0.07977   0.88730   -0.41728   0.19724   102.19116
561   0.07981   0.88672   -0.41841   0.19703   0.07981   0.88672   -0.41841   0.19703   102.20032
562   0.07967   0.88678   -0.41807   0.19758   0.07967   0.88678   -0.41807   0.19758   102.27356
563   0.07971   0.88720   -0.41740   0.19703   0.07971   0.88720   -0.41740   0.19703   102.24915
564   0.07980   0.88711   -0.41807   0.19626   0.07980   0.88711   -0.41807   0.19626   102.13318
565   0.07978   0.88705   -0.41765   0.19687   0.07978   0.88705   -0.41765   0.19687   102.29492
566   0.07971   0.88702   -0.41792   0.19703   0.07971   0.88702   -0.41792   0.19703   102.26135
567   0.07972   0.88668   -0.41850   0.19691   0.07972   0.88668   -0.41850   0.19691   102.22778
568   0.07966   0.88708   -0.41801   0.19691   0.07966   0.88708   -0.41801   0.19691   102.20642
569   0.07966   0.88730   -0.41728   0.19715   0.07966   0.88730   -0.41728   0.19715   102.28577
570   0.07969   0.88708   -0.41752   0.19764   0.07969   0.88708   -0.41752   0.19764   102.24915
571   0.07966   0.88705   -0.41749   0.19770   0.07966   0.88705   -0.41749   0.19770   102.20642
572   0.07966   0.88675   -0.41832   0.19712   0.07966   0.88675   -0.41832   0.19712   102.26135
573   0.07960   0.88665   -0.41923   0.19547   0.07960   0.88665   -0.41923   0.19547   102.26440
574   0.07965   0.88723   -0.41755   0.19639   0.07965   0.88723   -0.41755   0.19639   102.20642
575   0.07965   0.88644   -0.41942   0.19648   0.07965   0.88644   -0.41942   0.19648   102.20642
576   0.07966   0.88699   -0.41862   0.19553   0.07966   0.88699   -0.41862   0.19553   102.25220
577   0.07965   0.88726   -0.41813   0.19514   0.07965   0.88726   -0.41813   0.19514   102.28577
578   0.07982   0.88702   -0.41829   0.19596   0.07982   0.88702   -0.41829   0.19596   102.16675
579   0.07966   0.88736   -0.41768   0.19620   0.07966   0.88736   -0.41768   0.19620   102.23999
580   0.07953   0.88699   -0.41798   0.19691   0.07953   0.88699   -0.41798   0.19691   102.30103
581   0.07961   0.88733   -0.41752   0.19648   0.07961   0.88733   -0.41752   0.19648   102.31018
582   0.07976   0.88690   -0.41798   0.19715   0.07976   0.88690   -0.41798   0.19715   102.15759
583   0.07972   0.88665   -0.41838   0.19721   0.07972   0.88665   -0.41838   0.19721   102.22778
584   0.07958   0.88711   -0.41780   0.19672   0.07958   0.88711   -0.41780   0.19672   102.31018
585   0.07960   0.88714   -0.41792   0.19669   0.07960   0.88714   -0.41792   0.19669   102.27661
586   0.07972   0.88699   -0.41771   0.19733   0.07972   0.88699   -0.41771   0.19733   102.16980
587   0.07973   0.88629   -0.41923   0.19709   0.07973   0.88629   -0.41923   0.19709   102.26135
588   0.07967   0.88653   -0.41881   0.19721   0.07967   0.88653   -0.41881   0.19721   102.28577
589   0.07963   0.88675   -0.41810   0.19752   0.07963   0.88675   -0.41810   0.19752   102.31018
590   0.07975   0.88705   -0.41780   0.19724   0.07975   0.88705   -0.41780   0.19724   102.15759
591   0.07971   0.88714   -0.41789   0.19626   0.07971   0.88714   -0.41789   0.19626   102.22778
592   0.07968   0.88699   -0.41743   0.19782   0.07968   0.88699   -0.41743   0.19782   102.29797
593   0.07973   0.88705   -0.41777   0.19706   0.07973   0.88705   -0.41777   0.19706   102.21558
594   0.07982   0.88684   -0.41820   0.19706   0.07982   0.88684   -0.41820   0.19706   102.21252
595   0.07966   0.88720   -0.41838   0.19526   0.07966   0.88720   -0.41838   0.19526   102.22778
596   0.07938   0.88708   -0.41832   0.19587   0.07938   0.88708   -0.41832   0.19587   102.28271
597   0.07949   0.88705   -0.41749   0.19770   0.07949   0.88705   -0.41749   0.19770   102.23389
598   0.07971   0.88675   -0.41826   0.19718   0.07971   0.88675   -0.41826   0.19718   102.26135
599   0.07964   0.88708   -0.41707   0.19803   0.07964   0.88708   -0.41707   0.19803   102.28577
600   0.07954   0.88717   -0.41780   0.19666   0.07954   0.88717   -0.41780   0.19666   102.25525
601   0.07963   0.88739   -0.41716   0.19706   0.07963   0.88739   -0.41716   0.19706   102.22778
602   0.07968   0.88693   -0.41789   0.19715   0.07968   0.88693   -0.41789   0.19715   102.26135
603   0.07964   0.88687   -0.41820   0.19730   0.07964   0.88687   -0.41820   0.19730   102.25220
604   0.07972   0.88708   -0.41758   0.19718   0.07972   0.88708   -0.41758   0.19718   102.19116
605   0.07965   0.88665   -0.41874   0.19660   0.07965   0.88665   -0.41874   0.19660   102.28577
606   0.07968   0.88659   -0.41874   0.19718   0.07968   0.88659   -0.41874   0.19718   102.28577
607   0.07970   0.88681   -0.41801   0.19742   0.07970   0.88681   -0.41801   0.19742   102.24915
608   0.07973   0.88668   -0.41850   0.19730   0.07973   0.88668   -0.41850   0.19730   102.20337
609   0.07965   0.88614   -0.41954   0.19703   0.07965   0.88614   -0.41954   0.19703   102.23999
610   0.07957   0.88610   -0.41987   0.19681   0.07957   0.88610   -0.41987   0.19681   102.33459
611   0.07966   0.88672   -0.41816   0.19764   0.07966   0.88672   -0.41816   0.19764   102.25220
612   0.07968   0.88665   -0.41896   0.19633   0.07968   0.88665   -0.41896   0.19633   102.22778
613   0.07966   0.88659   -0.41862   0.19733   0.07966   0.88659   -0.41862   0.19733   102.26135
614   0.07961   0.88678   -0.41807   0.19745   0.07961   0.88678   -0.41807   0.19745   102.32239
615   0.07974   0.88632   -0.41890   0.19742   0.07974   0.88632   -0.41890   0.19742   102.20337
616   0.07976   0.88730   -0.41667   0.19788   0.07976   0.88730   -0.41667   0.19788   102.15759
617   0.07967   0.88644   -0.41890   0.19718   0.07967   0.88644   -0.41890   0.19718   102.29797
618   0.07969   0.88693   -0.41820   0.19681   0.07969   0.88693   -0.41820   0.19681   102.27356
619   0.07977   0.88668   -0.41847   0.19739   0.07977   0.88668   -0.41847   0.19739   102.19116
620   0.07975   0.88656   -0.41841   0.19776   0.07975   0.88656   -0.41841   0.19776   102.21558
621   0.07966   0.88656   -0.41844   0.19742   0.07966   0.88656   -0.41844   0.19742   102.31018
622   0.07963   0.88632   -0.41926   0.19742   0.07963   0.88632   -0.41926   0.19742   102.28577
623   0.07966   0.88662   -0.41816   0.19810   0.07966   0.88662   -0.41816   0.19810   102.16980
624   0.07966   0.88693   -0.41820   0.19657   0.07966   0.88693   -0.41820   0.19657   102.22778
625   0.07958   0.88656   -0.41874   0.19675   0.07958   0.88656   -0.41874   0.19675   102.29797
626   0.07965   0.88662   -0.41850   0.19755   0.07965   0.88662   -0.41850   0.19755   102.22778
627   0.07972   0.88653   -0.41868   0.19764   0.07972   0.88653   -0.41868   0.19764   102.18201
628   0.07968   0.88678   -0.41859   0.19697   0.07968   0.88678   -0.41859   0.19697   102.22778
629   0.07967   0.88687   -0.41807   0.19755   0.07967   0.88687   -0.41807   0.19755   102.29797
630   0.07972   0.88690   -0.41725   0.19877   0.07972   0.88690   -0.41725   0.19877   102.18201
631   0.07971   0.88629   -0.41890   0.19810   0.07971   0.88629   -0.41890   0.19810   102.22778
632   0.07969   0.88675   -0.41816   0.19797   0.07969   0.88675   -0.41816   0.19797   102.28577
633   0.07972   0.88684   -0.41810   0.19709   0.07972   0.88684   -0.41810   0.19709   102.26135
634   0.07974   0.88653   -0.41841   0.19819   0.07974   0.88653   -0.41841   0.19819   102.22473
635   0.07969   0.88678   -0.41810   0.19724   0.07969   0.88678   -0.41810   0.19724   102.22778
636   0.07957   0.88696   -0.41789   0.19745   0.07957   0.88696   -0.41789   0.19745   102.33459
637   0.07965   0.88678   -0.41816   0.19742   0.07965   0.88678   -0.41816   0.19742   102.20642
638   0.07969   0.88708   -0.41783   0.19672   0.07969   0.88708   -0.41783   0.19672   102.19421
639   0.07962   0.88672   -0.41887   0.19633   0.07962   0.88672   -0.41887   0.19633   102.29797
640   0.07963   0.88675   -0.41884   0.19626   0.07963   0.88675   -0.41884   0.19626   102.27661
641   0.07974   0.88662   -0.41823   0.19840   0.07974   0.88662   -0.41823   0.19840   102.17896
642   0.07969   0.88620   -0.41902   0.19788   0.07969   0.88620   -0.41902   0.19788   102.23999
643   0.07960   0.88687   -0.41856   0.19590   0.07960   0.88687   -0.41856   0.19590   102.32239
644   0.07963   0.88638   -0.41960   0.19605   0.07963   0.88638   -0.41960   0.19605   102.28577
645   0.07975   0.88684   -0.41911   0.19568   0.07975   0.88684   -0.41911   0.19568   102.15759
646   0.07975   0.88662   -0.41868   0.19718   0.07975   0.88662   -0.41868   0.19718   102.21558
647   0.07966   0.88656   -0.41859   0.19742   0.07966   0.88656   -0.41859   0.19742   102.31018
648   0.07969   0.88638   -0.41899   0.19727   0.07969   0.88638   -0.41899   0.19727   102.27356
649   0.07975   0.88638   -0.41917   0.19761   0.07975   0.88638   -0.41917   0.19761   102.16980
650   0.07965   0.88681   -0.41847   0.19666   0.07965   0.88681   -0.41847   0.19666   102.22778
651   0.07955   0.88659   -0.41890   0.19660   0.07955   0.88659   -0.41890   0.19660   102.33459
652   0.07968   0.88699   -0.41792   0.19694   0.07968   0.88699   -0.41792   0.19694   102.20337
653   0.07973   0.88617   -0.41929   0.19773   0.07973   0.88617   -0.41929   0.19773   102.15759
654   0.07965   0.88638   -0.41890   0.19733   0.07965   0.88638   -0.41890   0.19733   102.26440
655   0.07964   0.88647   -0.41905   0.19694   0.07964   0.88647   -0.41905   0.19694   102.31018
656   0.07973   0.88668   -0.41795   0.19797   0.07973   0.88668   -0.41795   0.19797   102.22778
657   0.07972   0.88607   -0.41939   0.19785   0.07972   0.88607   -0.41939   0.19785   102.18201
658   0.07971   0.88629   -0.41887   0.19803   0.07971   0.88629   -0.41887   0.19803   102.26135
659   0.07978   0.88638   -0.41829   0.19852   0.07978   0.88638   -0.41829   0.19852   102.30408
660   0.07977   0.88644   -0.41865   0.19782   0.07977   0.88644   -0.41865   0.19782   102.25830
661   0.07972   0.88693   -0.41881   0.19556   0.07972   0.88693   -0.41881   0.19556   102.20337
662   0.07966   0.88675   -0.41826   0.19730   0.07966   0.88675   -0.41826   0.19730   102.28577
663   0.07964   0.88604   -0.41939   0.19828   0.07964   0.88604   -0.41939   0.19828   102.28577
664   0.07962   0.88641   -0.41874   0.19764   0.07962   0.88641   -0.41874   0.19764   102.23083
665   0.07954   0.88690   -0.41838   0.19617   0.07954   0.88690   -0.41838   0.19617   102.23083
666   0.07956   0.88662   -0.41932   0.19575   0.07956   0.88662   -0.41932   0.19575   102.25525
667   0.07967   0.88668   -0.41844   0.19724   0.07967   0.88668   -0.41844   0.19724   102.20337
668   0.07961   0.88614   -0.41972   0.19736   0.07961   0.88614   -0.41972   0.19736   102.25220
669   0.07961   0.88681   -0.41829   0.19712   0.07961   0.88681   -0.41829   0.19712   102.25220
670   0.07966   0.88687   -0.41835   0.19669   0.07966   0.88687   -0.41835   0.19669   102.25220
671   0.07966   0.88641   -0.41887   0.19752   0.07966   0.88641   -0.41887   0.19752   102.21558
672   0.07966   0.88684   -0.41771   0.19785   0.07966   0.88684   -0.41771   0.19785   102.23999
673   0.07966   0.88681   -0.41804   0.19745   0.07966   0.88681   -0.41804   0.19745   102.27356
674   0.07970   0.88668   -0.41871   0.19687   0.07970   0.88668   -0.41871   0.19687   102.22778
675   0.07974   0.88678   -0.41807   0.19742   0.07974   0.88678   -0.41807   0.19742   102.19116
676   0.07966   0.88726   -0.41719   0.19739   0.07966   0.88726   -0.41719   0.19739   102.26135
677   0.07954   0.88723   -0.41755   0.19681   0.07954   0.88723   -0.41755   0.19681   102.30103
678   0.07935   0.88687   -0.41746   0.19843   0.07935   0.88687   -0.41746   0.19843   102.16675
679   0.07962   0.88681   -0.41829   0.19718   0.07962   0.88681   -0.41829   0.19718   102.14844
680   0.07968   0.88647   -0.41890   0.19703   0.07968   0.88647   -0.41890   0.19703   102.28577
681   0.07959   0.88635   -0.41871   0.19834   0.07959   0.88635   -0.41871   0.19834   102.29797
682   0.07961   0.88647   -0.41841   0.19822   0.07961   0.88647   -0.41841   0.19822   102.18506
683   0.07965   0.88690   -0.41749   0.19843   0.07965   0.88690   -0.41749   0.19843   102.19421
684   0.07964   0.88702   -0.41780   0.19715   0.07964   0.88702   -0.41780   0.19715   102.31018
685   0.07965   0.88705   -0.41762   0.19727   0.07965   0.88705   -0.41762   0.19727   102.26440
686   0.07973   0.88656   -0.41887   0.19660   0.07973   0.88656   -0.41887   0.19660   102.19116
687   0.07966   0.88653   -0.41859   0.19767   0.07966   0.88653   -0.41859   0.19767   102.22778
688   0.07962   0.88720   -0.41853   0.19495   0.07962   0.88720   -0.41853   0.19495   102.31018
689   0.07966   0.88730   -0.41758   0.19657   0.07966   0.88730   -0.41758   0.19657   102.22778
690   0.07962   0.88708   -0.41813   0.19626   0.07962   0.88708   -0.41813   0.19626   102.17285
691   0.07955   0.88687   -0.41832   0.19669   0.07955   0.88687   -0.41832   0.19669   102.27661
692   0.07954   0.88693   -0.41865   0.19553   0.07954   0.88693   -0.41865   0.19553   102.28882
693   0.07963   0.88702   -0.41771   0.19733   0.07963   0.88702   -0.41771   0.19733   102.23999
694   0.07971   0.88717   -0.41862   0.19483   0.07971   0.88717   -0.41862   0.19483   102.18201
695   0.07966   0.88717   -0.41838   0.19520   0.07966   0.88717   -0.41838   0.19520   102.28577
696   0.07958   0.88675   -0.41926   0.19562   0.07958   0.88675   -0.41926   0.19562   102.27661
697   0.07967   0.88702   -0.41862   0.19547   0.07967   0.88702   -0.41862   0.19547   102.21558
698   0.07969   0.88723   -0.41813   0.19575   0.07969   0.88723   -0.41813   0.19575   102.22778
699   0.07963   0.88699   -0.41847   0.19599   0.07963   0.88699   -0.41847   0.19599   102.26440
700   0.07968   0.88696   -0.41813   0.19633   0.07968   0.88696   -0.41813   0.19633   102.21558
701   0.07966   0.88705   -0.41862   0.19504   0.07966   0.88705   -0.41862   0.19504   102.23999
702   0.07966   0.88717   -0.41823   0.19556   0.07966   0.88717   -0.41823   0.19556   102.23999
703   0.07966   0.88705   -0.41865   0.19504   0.07966   0.88705   -0.41865   0.19504   102.28577
704   0.07967   0.88690   -0.41816   0.19697   0.07967   0.88690   -0.41816   0.19697   102.23999
705   0.07959   0.88684   -0.41850   0.19669   0.07959   0.88684   -0.41850   0.19669   102.21863
706   0.07959   0.88665   -0.41884   0.19602   0.07959   0.88665   -0.41884   0.19602   102.29797
707   0.07966   0.88717   -0.41801   0.19620   0.07966   0.88717   -0.41801   0.19620   102.27356
708   0.07970   0.88696   -0.41829   0.19633   0.07970   0.88696   -0.41829   0.19633   102.19116
709   0.07962   0.88675   -0.41954   0.19449   0.07962   0.88675   -0.41954   0.19449   102.20642
710   0.07954   0.88723   -0.41859   0.19443   0.07954   0.88723   -0.41859   0.19443   102.34680
711   0.07964   0.88739   -0.41807   0.19492   0.07964   0.88739   -0.41807   0.19492   102.25220
712   0.07971   0.88730   -0.41832   0.19483   0.07971   0.88730   -0.41832   0.19483   102.18201
713   0.07961   0.88717   -0.41865   0.19434   0.07961   0.88717   -0.41865   0.19434   102.28577
714   0.07962   0.88678   -0.41890   0.19590   0.07962   0.88678   -0.41890   0.19590   102.35596
715   0.07974   0.88717   -0.41783   0.19642   0.07974   0.88717   -0.41783   0.19642   102.20337
716   0.07975   0.88723   -0.41755   0.19639   0.07975   0.88723   -0.41755   0.19639   102.21558
717   0.07966   0.88708   -0.41789   0.19669   0.07966   0.88708   -0.41789   0.19669   102.29797
718   0.07963   0.88668   -0.41847   0.19724   0.07963   0.88668   -0.41847   0.19724   102.32239
719   0.07961   0.88720   -0.41725   0.19730   0.07961   0.88720   -0.41725   0.19730   102.23083
720   0.07965   0.88662   -0.41850   0.19755   0.07965   0.88662   -0.41850   0.19755   102.22778
721   0.07963   0.88711   -0.41807   0.19614   0.07963   0.88711   -0.41807   0.19614   102.32239
722   0.07961   0.88711   -0.41780   0.19687   0.07961   0.88711   -0.41780   0.19687   102.27661
723   0.07969   0.88681   -0.41841   0.19687   0.07969   0.88681   -0.41841   0.19687   102.23999
724   0.07968   0.88733   -0.41755   0.19602   0.07968   0.88733   -0.41755   0.19602   102.23999
725   0.07967   0.88736   -0.41792   0.19556   0.07967   0.88736   -0.41792   0.19556   102.33154
726   0.07970   0.88705   -0.41755   0.19733   0.07970   0.88705   -0.41755   0.19733   102.26135
727   0.07970   0.88690   -0.41893   0.19562   0.07970   0.88690   -0.41893   0.19562   102.18201
728   0.07966   0.88662   -0.41954   0.19544   0.07966   0.88662   -0.41954   0.19544   102.20642
729   0.07962   0.88708   -0.41820   0.19620   0.07962   0.88708   -0.41820   0.19620   102.23999
730   0.07973   0.88745   -0.41685   0.19694   0.07973   0.88745   -0.41685   0.19694   102.19116
731   0.07971   0.88760   -0.41725   0.19572   0.07971   0.88760   -0.41725   0.19572   102.20337
732   0.07967   0.88711   -0.41768   0.19697   0.07967   0.88711   -0.41768   0.19697   102.28577
733   0.07959   0.88702   -0.41774   0.19745   0.07959   0.88702   -0.41774   0.19745   102.24304
734   0.07969   0.88665   -0.41820   0.19752   0.07969   0.88665   -0.41820   0.19752   102.23999
735   0.07966   0.88665   -0.41853   0.19739   0.07966   0.88665   -0.41853   0.19739   102.26135
736   0.07963   0.88714   -0.41771   0.19681   0.07963   0.88714   -0.41771   0.19681   102.29797
737   0.07971   0.88711   -0.41762   0.19755   0.07971   0.88711   -0.41762   0.19755   102.24915
738   0.07971   0.88684   -0.41768   0.19782   0.07971   0.88684   -0.41768   0.19782   102.20337
739   0.07966   0.88693   -0.41801   0.19736   0.07966   0.88693   -0.41801   0.19736   102.27356
740   0.07967   0.88711   -0.41731   0.19770   0.07967   0.88711   -0.41731   0.19770   102.27356
741   0.07978   0.88730   -0.41676   0.19797   0.07978   0.88730   -0.41676   0.19797   102.20032
742   0.07978   0.88699   -0.41740   0.19776   0.07978   0.88699   -0.41740   0.19776   102.21252
743   0.07969   0.88705   -0.41737   0.19736   0.07969   0.88705   -0.41737   0.19736   102.29492
744   0.07970   0.88711   -0.41713   0.19819   0.07970   0.88711   -0.41713   0.19819   102.26135
745   0.07978   0.88696   -0.41749   0.19822   0.07978   0.88696   -0.41749   0.19822   102.14539
746   0.07970   0.88751   -0.41646   0.19730   0.07970   0.88751   -0.41646   0.19730   102.20337
747   0.07956   0.88733   -0.41722   0.19715   0.07956   0.88733   -0.41722   0.19715   102.28882
748   0.07965   0.88730   -0.41649   0.19846   0.07965   0.88730   -0.41649   0.19846   102.27356
749   0.07973   0.88766   -0.41649   0.19700   0.07973   0.88766   -0.41649   0.19700   102.14539
750   0.07961   0.88730   -0.41795   0.19584   0.07961   0.88730   -0.41795   0.19584   102.25220
751   0.07954   0.88708   -0.41789   0.19651   0.07954   0.88708   -0.41789   0.19651   102.31323
752   0.07971   0.88748   -0.41646   0.19776   0.07971   0.88748   -0.41646   0.19776   102.19116
753   0.07975   0.88742   -0.41655   0.19782   0.07975   0.88742   -0.41655   0.19782   102.14539
754   0.07971   0.88714   -0.41762   0.19712   0.07971   0.88714   -0.41762   0.19712   102.24915
755   0.07968   0.88714   -0.41691   0.19840   0.07968   0.88714   -0.41691   0.19840   102.28577
756   0.07977   0.88742   -0.41667   0.19779   0.07977   0.88742   -0.41667   0.19779   102.15759
757   0.07978   0.88775   -0.41572   0.19803   0.07978   0.88775   -0.41572   0.19803   102.17896
758   0.07958   0.88736   -0.41707   0.19709   0.07958   0.88736   -0.41707   0.19709   102.25220
759   0.07947   0.88797   -0.41569   0.19749   0.07947   0.88797   -0.41569   0.19749   102.24609
760   0.07966   0.88739   -0.41646   0.19834   0.07966   0.88739   -0.41646   0.19834   102.18201
761   0.07970   0.88763   -0.41667   0.19697   0.07970   0.88763   -0.41667   0.19697   102.20337
762   0.07960   0.88794   -0.41624   0.19626   0.07960   0.88794   -0.41624   0.19626   102.25220
763   0.07966   0.88754   -0.41661   0.19730   0.07966   0.88754   -0.41661   0.19730   102.21558
764   0.07969   0.88733   -0.41682   0.19755   0.07969   0.88733   -0.41682   0.19755   102.21558
765   0.07968   0.88778   -0.41630   0.19678   0.07968   0.88778   -0.41630   0.19678   102.23999
766   0.07973   0.88711   -0.41762   0.19697   0.07973   0.88711   -0.41762   0.19697   102.27356
767   0.07976   0.88772   -0.41615   0.19755   0.07976   0.88772   -0.41615   0.19755   102.19116
768   0.07969   0.88797   -0.41639   0.19538   0.07969   0.88797   -0.41639   0.19538   102.20337
769   0.07966   0.88797   -0.41652   0.19584   0.07966   0.88797   -0.41652   0.19584   102.21558
770   0.07973   0.88751   -0.41615   0.19849   0.07973   0.88751   -0.41615   0.19849   102.26135
771   0.07977   0.88772   -0.41581   0.19846   0.07977   0.88772   -0.41581   0.19846   102.13318
772   0.07969   0.88766   -0.41588   0.19840   0.07969   0.88766   -0.41588   0.19840   102.22778
773   0.07963   0.88726   -0.41682   0.19813   0.07963   0.88726   -0.41682   0.19813   102.29797
774   0.07963   0.88699   -0.41707   0.19874   0.07963   0.88699   -0.41707   0.19874   102.21863
775   0.07967   0.88781   -0.41585   0.19800   0.07967   0.88781   -0.41585   0.19800   102.15759
776   0.07963   0.88803   -0.41557   0.19758   0.07963   0.88803   -0.41557   0.19758   102.20642
777   0.07965   0.88818   -0.41517   0.19724   0.07965   0.88818   -0.41517   0.19724   102.27356
778   0.07985   0.88800   -0.41530   0.19767   0.07985   0.88800   -0.41530   0.19767   102.14233
779   0.07966   0.88809   -0.41523   0.19736   0.07966   0.88809   -0.41523   0.19736   102.16980
780   0.07954   0.88745   -0.41664   0.19819   0.07954   0.88745   -0.41664   0.19819   102.25525
781   0.07966   0.88754   -0.41633   0.19764   0.07966   0.88754   -0.41633   0.19764   102.28577
782   0.07989   0.88803   -0.41530   0.19800   0.07989   0.88803   -0.41530   0.19800   102.16370
783   0.07984   0.88815   -0.41508   0.19779   0.07984   0.88815   -0.41508   0.19779   102.16675
784   0.07960   0.88812   -0.41563   0.19669   0.07960   0.88812   -0.41563   0.19669   102.29797
785   0.07958   0.88800   -0.41569   0.19703   0.07958   0.88800   -0.41569   0.19703   102.24304
786   0.07968   0.88742   -0.41646   0.19800   0.07968   0.88742   -0.41646   0.19800   102.14844
787   0.07965   0.88708   -0.41719   0.19767   0.07965   0.88708   -0.41719   0.19767   102.18201
788   0.07946   0.88742   -0.41673   0.19727   0.07946   0.88742   -0.41673   0.19727   102.31323
789   0.07954   0.88794   -0.41511   0.19855   0.07954   0.88794   -0.41511   0.19855   102.22168
790   0.07957   0.88839   -0.41481   0.19709   0.07957   0.88839   -0.41481   0.19709   102.19727
791   0.07963   0.88842   -0.41429   0.19813   0.07963   0.88842   -0.41429   0.19813   102.22778
792   0.07960   0.88809   -0.41493   0.19828   0.07960   0.88809   -0.41493   0.19828   102.29797
793   0.07971   0.88815   -0.41438   0.19901   0.07971   0.88815   -0.41438   0.19901   102.15759
794   0.07986   0.88806   -0.41472   0.19895   0.07986   0.88806   -0.41472   0.19895   102.20032
795   0.07973   0.88809   -0.41484   0.19852   0.07973   0.88809   -0.41484   0.19852   102.22778
796   0.07945   0.88836   -0.41404   0.19889   0.07945   0.88836   -0.41404   0.19889   102.23389
797   0.07963   0.88781   -0.41487   0.19950   0.07963   0.88781   -0.41487   0.19950   102.16064
798   0.07984   0.88855   -0.41408   0.19785   0.07984   0.88855   -0.41408   0.19785   102.21252
799   0.07969   0.88833   -0.41462   0.19807   0.07969   0.88833   -0.41462   0.19807   102.23999
800   0.07958   0.88852   -0.41414   0.19822   0.07958   0.88852   -0.41414   0.19822   102.16064
801   0.07960   0.88855   -0.41423   0.19797   0.07960   0.88855   -0.41423   0.19797   102.20642
802   0.07961   0.88788   -0.41542   0.19776   0.07961   0.88788   -0.41542   0.19776   102.25220
803   0.07961   0.88818   -0.41429   0.19980   0.07961   0.88818   -0.41429   0.19980   102.23999
804   0.07963   0.88800   -0.41459   0.19901   0.07963   0.88800   -0.41459   0.19901   102.20642
805   0.07965   0.88842   -0.41444   0.19813   0.07965   0.88842   -0.41444   0.19813   102.20642
806   0.07963   0.88836   -0.41423   0.19898   0.07963   0.88836   -0.41423   0.19898   102.28577
807   0.07969   0.88842   -0.41401   0.19904   0.07969   0.88842   -0.41401   0.19904   102.20337
808   0.07977   0.88784   -0.41465   0.19984   0.07977   0.88784   -0.41465   0.19984   102.12097
809   0.07968   0.88830   -0.41420   0.19910   0.07968   0.88830   -0.41420   0.19910   102.18201
810   0.07967   0.88894   -0.41322   0.19834   0.07967   0.88894   -0.41322   0.19834   102.27356
811   0.07970   0.88876   -0.41316   0.19874   0.07970   0.88876   -0.41316   0.19874   102.21558
812   0.07977   0.88839   -0.41408   0.19880   0.07977   0.88839   -0.41408   0.19880   102.14539
813   0.07968   0.88861   -0.41380   0.19880   0.07968   0.88861   -0.41380   0.19880   102.23999
814   0.07963   0.88861   -0.41380   0.19837   0.07963   0.88861   -0.41380   0.19837   102.31018
815   0.07966   0.88824   -0.41447   0.19871   0.07966   0.88824   -0.41447   0.19871   102.18201
816   0.07964   0.88845   -0.41377   0.19916   0.07964   0.88845   -0.41377   0.19916   102.18201
817   0.07962   0.88852   -0.41340   0.19956   0.07962   0.88852   -0.41340   0.19956   102.28577
818   0.07962   0.88818   -0.41414   0.19944   0.07962   0.88818   -0.41414   0.19944   102.26440
819   0.07973   0.88797   -0.41435   0.19993   0.07973   0.88797   -0.41435   0.19993   102.15759
820   0.07968   0.88861   -0.41343   0.19907   0.07968   0.88861   -0.41343   0.19907   102.14844
821   0.07969   0.88888   -0.41334   0.19785   0.07969   0.88888   -0.41334   0.19785   102.23999
822   0.07966   0.88870   -0.41340   0.19898   0.07966   0.88870   -0.41340   0.19898   102.22778
823   0.07978   0.88858   -0.41350   0.19898   0.07978   0.88858   -0.41350   0.19898   102.14539
824   0.07976   0.88907   -0.41301   0.19782   0.07976   0.88907   -0.41301   0.19782   102.16675
825   0.07972   0.88870   -0.41414   0.19758   0.07972   0.88870   -0.41414   0.19758   102.26135
826   0.07970   0.88852   -0.41368   0.19929   0.07970   0.88852   -0.41368   0.19929   102.22778
827   0.07974   0.88870   -0.41356   0.19892   0.07974   0.88870   -0.41356   0.19892   102.14539
828   0.07968   0.88845   -0.41420   0.19819   0.07968   0.88845   -0.41420   0.19819   102.20337
829   0.07958   0.88891   -0.41325   0.19837   0.07958   0.88891   -0.41325   0.19837   102.24304
830   0.07966   0.88849   -0.41386   0.19892   0.07966   0.88849   -0.41386   0.19892   102.16980
831   0.07966   0.88864   -0.41383   0.19788   0.07966   0.88864   -0.41383   0.19788   102.23999
832   0.07961   0.88894   -0.41319   0.19810   0.07961   0.88894   -0.41319   0.19810   102.26440
833   0.07966   0.88931   -0.41279   0.19782   0.07966   0.88931   -0.41279   0.19782   102.19421
834   0.07972   0.88882   -0.41316   0.19864   0.07972   0.88882   -0.41316   0.19864   102.13318
835   0.07969   0.88873   -0.41334   0.19858   0.07969   0.88873   -0.41334   0.19858   102.21558
836   0.07967   0.88894   -0.41343   0.19770   0.07967   0.88894   -0.41343   0.19770   102.27356
837   0.07978   0.88870   -0.41371   0.19825   0.07978   0.88870   -0.41371   0.19825   102.15759
838   0.07974   0.88888   -0.41337   0.19813   0.07974   0.88888   -0.41337   0.19813   102.17896
839   0.07971   0.88910   -0.41328   0.19718   0.07971   0.88910   -0.41328   0.19718   102.23694
840   0.07970   0.88852   -0.41417   0.19837   0.07970   0.88852   -0.41417   0.19837   102.27356
841   0.07976   0.88913   -0.41279   0.19843   0.07976   0.88913   -0.41279   0.19843   102.11182
842   0.07969   0.88885   -0.41295   0.19901   0.07969   0.88885   -0.41295   0.19901   102.16980
843   0.07954   0.88864   -0.41389   0.19797   0.07954   0.88864   -0.41389   0.19797   102.28882
844   0.07966   0.88858   -0.41401   0.19800   0.07966   0.88858   -0.41401   0.19800   102.27356
845   0.07973   0.88806   -0.41502   0.19822   0.07973   0.88806   -0.41502   0.19822   102.13318
846   0.07968   0.88861   -0.41420   0.19755   0.07968   0.88861   -0.41420   0.19755   102.21558
847   0.07963   0.88827   -0.41508   0.19755   0.07963   0.88827   -0.41508   0.19755   102.28577
848   0.07968   0.88864   -0.41353   0.19907   0.07968   0.88864   -0.41353   0.19907   102.26135
849   0.07977   0.88873   -0.41353   0.19852   0.07977   0.88873   -0.41353   0.19852   102.13318
850   0.07966   0.88824   -0.41441   0.19895   0.07966   0.88824   -0.41441   0.19895   102.21558
851   0.07966   0.88870   -0.41389   0.19770   0.07966   0.88870   -0.41389   0.19770   102.29797
852   0.07971   0.88894   -0.41313   0.19868   0.07971   0.88894   -0.41313   0.19868   102.19116
853   0.07980   0.88897   -0.41325   0.19773   0.07980   0.88897   -0.41325   0.19773   102.13318
854   0.07968   0.88833   -0.41429   0.19819   0.07968   0.88833   -0.41429   0.19819   102.26135
855   0.07963   0.88900   -0.41292   0.19874   0.07963   0.88900   -0.41292   0.19874   102.25220
856   0.07969   0.88824   -0.41444   0.19855   0.07969   0.88824   -0.41444   0.19855   102.19421
857   0.07966   0.88827   -0.41499   0.19758   0.07966   0.88827   -0.41499   0.19758   102.16064
858   0.07965   0.88858   -0.41404   0.19834   0.07965   0.88858   -0.41404   0.19834   102.25220
859   0.07974   0.88903   -0.41282   0.19831   0.07974   0.88903   -0.41282   0.19831   102.21558
860   0.07978   0.88876   -0.41365   0.19810   0.07978   0.88876   -0.41365   0.19810   102.16675
861   0.07966   0.88845   -0.41441   0.19779   0.07966   0.88845   -0.41441   0.19779   102.22778
862   0.07965   0.88839   -0.41462   0.19749   0.07965   0.88839   -0.41462   0.19749   102.25220
863   0.07973   0.88876   -0.41377   0.19794   0.07973   0.88876   -0.41377   0.19794   102.22778
864   0.07972   0.88882   -0.41319   0.19837   0.07972   0.88882   -0.41319   0.19837   102.23694
865   0.07965   0.88830   -0.41450   0.19849   0.07965   0.88830   -0.41450   0.19849   102.25220
866   0.07966   0.88922   -0.41231   0.19886   0.07966   0.88922   -0.41231   0.19886   102.20642
867   0.07976   0.88836   -0.41459   0.19773   0.07976   0.88836   -0.41459   0.19773   102.19116
868   0.07966   0.88849   -0.41429   0.19834   0.07966   0.88849   -0.41429   0.19834   102.23999
869   0.07963   0.88907   -0.41307   0.19803   0.07963   0.88907   -0.41307   0.19803   102.21863
870   0.07964   0.88842   -0.41444   0.19803   0.07964   0.88842   -0.41444   0.19803   102.22778
871   0.07967   0.88879   -0.41411   0.19706   0.07967   0.88879   -0.41411   0.19706   102.15759
872   0.07965   0.88852   -0.41487   0.19663   0.07965   0.88852   -0.41487   0.19663   102.22778
873   0.07959   0.88885   -0.41380   0.19752   0.07959   0.88885   -0.41380   0.19752   102.27661
874   0.07970   0.88800   -0.41505   0.19834   0.07970   0.88800   -0.41505   0.19834   102.19116
875   0.07974   0.88815   -0.41487   0.19800   0.07974   0.88815   -0.41487   0.19800   102.17896
876   0.07968   0.88855   -0.41459   0.19715   0.07968   0.88855   -0.41459   0.19715   102.23999
877   0.07956   0.88839   -0.41508   0.19657   0.07956   0.88839   -0.41508   0.19657   102.26440
878   0.07946   0.88766   -0.41591   0.19861   0.07946   0.88766   -0.41591   0.19861   102.16370
879   0.07968   0.88723   -0.41713   0.19761   0.07968   0.88723   -0.41713   0.19761   102.16980
880   0.07973   0.88757   -0.41633   0.19739   0.07973   0.88757   -0.41633   0.19739   102.32849
881   0.07970   0.88751   -0.41670   0.19758   0.07970   0.88751   -0.41670   0.19758   102.23999
882   0.07967   0.88784   -0.41499   0.19932   0.07967   0.88784   -0.41499   0.19932   102.09045
883   0.07966   0.88763   -0.41554   0.19874   0.07966   0.88763   -0.41554   0.19874   102.16064
884   0.07954   0.88806   -0.41487   0.19855   0.07954   0.88806   -0.41487   0.19855   102.26746
885   0.07964   0.88815   -0.41438   0.19953   0.07964   0.88815   -0.41438   0.19953   102.19421
886   0.07966   0.88778   -0.41533   0.19901   0.07966   0.88778   -0.41533   0.19901   102.16064
887   0.07959   0.88766   -0.41545   0.19935   0.07959   0.88766   -0.41545   0.19935   102.23083
888   0.07960   0.88775   -0.41493   0.19977   0.07960   0.88775   -0.41493   0.19977   102.27661
889   0.07969   0.88784   -0.41520   0.19849   0.07969   0.88784   -0.41520   0.19849   102.20337
890   0.07972   0.88736   -0.41639   0.19892   0.07972   0.88736   -0.41639   0.19892   102.16980
891   0.07967   0.88781   -0.41520   0.19919   0.07967   0.88781   -0.41520   0.19919   102.22778
892   0.07968   0.88827   -0.41469   0.19825   0.07968   0.88827   -0.41469   0.19825   102.23999
893   0.07977   0.88800   -0.41514   0.19831   0.07977   0.88800   -0.41514   0.19831   102.19116
894   0.07981   0.88839   -0.41447   0.19794   0.07981   0.88839   -0.41447   0.19794   102.20032
895   0.07979   0.88818   -0.41499   0.19791   0.07979   0.88818   -0.41499   0.19791   102.23694
896   0.07974   0.88885   -0.41316   0.19907   0.07974   0.88885   -0.41316   0.19907   102.17896
897   0.07966   0.88858   -0.41469   0.19700   0.07966   0.88858   -0.41469   0.19700   102.16980
898   0.07955   0.88852   -0.41487   0.19657   0.07955   0.88852   -0.41487   0.19657   102.21863
899   0.07968   0.88879   -0.41401   0.19691   0.07968   0.88879   -0.41401   0.19691   102.24915
900   0.07973   0.88861   -0.41401   0.19825   0.07973   0.88861   -0.41401   0.19825   102.16980
901   0.07967   0.88824   -0.41475   0.19834   0.07967   0.88824   -0.41475   0.19834   102.22778
902   0.07966   0.88818   -0.41481   0.19819   0.07966   0.88818   -0.41481   0.19819   102.25220
903   0.07970   0.88845   -0.41392   0.19837   0.07970   0.88845   -0.41392   0.19837   102.26135
904   0.07975   0.88821   -0.41441   0.19883   0.07975   0.88821   -0.41441   0.19883   102.15759
905   0.07972   0.88849   -0.41414   0.19819   0.07972   0.88849   -0.41414   0.19819   102.21558
906   0.07969   0.88864   -0.41389   0.19791   0.07969   0.88864   -0.41389   0.19791   102.30713
907   0.07974   0.88894   -0.41328   0.19822   0.07974   0.88894   -0.41328   0.19822   102.17896
908   0.07975   0.88852   -0.41438   0.19791   0.07975   0.88852   -0.41438   0.19791   102.07520
909   0.07965   0.88882   -0.41429   0.19672   0.07965   0.88882   -0.41429   0.19672   102.16980
910   0.07960   0.88836   -0.41447   0.19785   0.07960   0.88836   -0.41447   0.19785   102.29797
911   0.07966   0.88858   -0.41377   0.19834   0.07966   0.88858   -0.41377   0.19834   102.18201
912   0.07966   0.88839   -0.41487   0.19739   0.07966   0.88839   -0.41487   0.19739   102.18201
913   0.07961   0.88824   -0.41517   0.19715   0.07961   0.88824   -0.41517   0.19715   102.26440
914   0.07962   0.88797   -0.41575   0.19718   0.07962   0.88797   -0.41575   0.19718   102.29797
915   0.07976   0.88873   -0.41392   0.19770   0.07976   0.88873   -0.41392   0.19770   102.12097
916   0.07973   0.88812   -0.41505   0.19813   0.07973   0.88812   -0.41505   0.19813   102.16980
917   0.07966   0.88794   -0.41600   0.19687   0.07966   0.88794   -0.41600   0.19687   102.25220
918   0.07966   0.88858   -0.41417   0.19770   0.07966   0.88858   -0.41417   0.19770   102.28577
919   0.07974   0.88845   -0.41438   0.19788   0.07974   0.88845   -0.41438   0.19788   102.15759
920   0.07977   0.88845   -0.41450   0.19745   0.07977   0.88845   -0.41450   0.19745   102.16675
921   0.07971   0.88824   -0.41520   0.19706   0.07971   0.88824   -0.41520   0.19706   102.28577
922   0.07973   0.88806   -0.41490   0.19871   0.07973   0.88806   -0.41490   0.19871   102.21558
923   0.07973   0.88812   -0.41508   0.19764   0.07973   0.88812   -0.41508   0.19764   102.19116
924   0.07966   0.88845   -0.41523   0.19587   0.07966   0.88845   -0.41523   0.19587   102.18201
925   0.07958   0.88830   -0.41478   0.19770   0.07958   0.88830   -0.41478   0.19770   102.27661
926   0.07966   0.88845   -0.41475   0.19752   0.07966   0.88845   -0.41475   0.19752   102.21558
927   0.07970   0.88903   -0.41328   0.19755   0.07970   0.88903   -0.41328   0.19755   102.16980
928   0.07966   0.88830   -0.41508   0.19733   0.07966   0.88830   -0.41508   0.19733   102.22778
929   0.07967   0.88897   -0.41350   0.19749   0.07967   0.88897   -0.41350   0.19749   102.20337
930   0.07972   0.88827   -0.41472   0.19776   0.07972   0.88827   -0.41472   0.19776   102.21558
931   0.07971   0.88827   -0.41435   0.19864   0.07971   0.88827   -0.41435   0.19864   102.21558
932   0.07970   0.88778   -0.41658   0.19672   0.07970   0.88778   -0.41658   0.19672   102.27356
933   0.07976   0.88800   -0.41511   0.19877   0.07976   0.88800   -0.41511   0.19877   102.17896
934   0.07976   0.88821   -0.41493   0.19785   0.07976   0.88821   -0.41493   0.19785   102.16675
935   0.07971   0.88806   -0.41560   0.19727   0.07971   0.88806   -0.41560   0.19727   102.23694
936   0.07965   0.88855   -0.41523   0.19584   0.07965   0.88855   -0.41523   0.19584   102.22778
937   0.07966   0.88784   -0.41548   0.19816   0.07966   0.88784   -0.41548   0.19816   102.16980
938   0.07964   0.88769   -0.41618   0.19730   0.07964   0.88769   -0.41618   0.19730   102.19421
939   0.07955   0.88778   -0.41569   0.19828   0.07955   0.88778   -0.41569   0.19828   102.26440
940   0.07962   0.88781   -0.41523   0.19910   0.07962   0.88781   -0.41523   0.19910   102.26440
941   0.07970   0.88833   -0.41435   0.19868   0.07970   0.88833   -0.41435   0.19868   102.15759
942   0.07973   0.88806   -0.41514   0.19810   0.07973   0.88806   -0.41514   0.19810   102.17896
943   0.07962   0.88772   -0.41569   0.19807   0.07962   0.88772   -0.41569   0.19807   102.28577
944   0.07967   0.88815   -0.41469   0.19883   0.07967   0.88815   -0.41469   0.19883   102.22778
945   0.07978   0.88797   -0.41481   0.19910   0.07978   0.88797   -0.41481   0.19910   102.16675
946   0.07973   0.88797   -0.41594   0.19694   0.07973   0.88797   -0.41594   0.19694   102.19116
947   0.07967   0.88739   -0.41697   0.19752   0.07967   0.88739   -0.41697   0.19752   102.30713
948   0.07974   0.88778   -0.41606   0.19761   0.07974   0.88778   -0.41606   0.19761   102.21558
949   0.07983   0.88769   -0.41615   0.19745   0.07983   0.88769   -0.41615   0.19745   102.15454
950   0.07972   0.88788   -0.41578   0.19736   0.07972   0.88788   -0.41578   0.19736   102.24915
951   0.07967   0.88809   -0.41527   0.19752   0.07967   0.88809   -0.41527   0.19752   102.25220
952   0.07969   0.88745   -0.41618   0.19840   0.07969   0.88745   -0.41618   0.19840   102.20337
953   0.07967   0.88760   -0.41606   0.19846   0.07967   0.88760   -0.41606   0.19846   102.14844
954   0.07966   0.88784   -0.41572   0.19788   0.07966   0.88784   -0.41572   0.19788   102.25220
955   0.07963   0.88742   -0.41655   0.19825   0.07963   0.88742   -0.41655   0.19825   102.25220
956   0.07971   0.88803   -0.41517   0.19858   0.07971   0.88803   -0.41517   0.19858   102.16980
957   0.07972   0.88781   -0.41594   0.19739   0.07972   0.88781   -0.41594   0.19739   102.18201
958   0.07957   0.88836   -0.41459   0.19791   0.07957   0.88836   -0.41459   0.19791   102.24304
959   0.07952   0.88818   -0.41493   0.19758   0.07952   0.88818   -0.41493   0.19758   102.22168
960   0.07977   0.88778   -0.41588   0.19773   0.07977   0.88778   -0.41588   0.19773   102.19116
961   0.07982   0.88742   -0.41667   0.19776   0.07982   0.88742   -0.41667   0.19776   102.22473
962   0.07968   0.88800   -0.41597   0.19639   0.07968   0.88800   -0.41597   0.19639   102.21558
963   0.07970   0.88736   -0.41621   0.19883   0.07970   0.88736   -0.41621   0.19883   102.21558
964   0.07970   0.88754   -0.41581   0.19874   0.07970   0.88754   -0.41581   0.19874   102.21558
965   0.07970   0.88791   -0.41545   0.19816   0.07970   0.88791   -0.41545   0.19816   102.22778
966   0.07967   0.88797   -0.41505   0.19840   0.07967   0.88797   -0.41505   0.19840   102.23999
967   0.07971   0.88833   -0.41441   0.19840   0.07971   0.88833   -0.41441   0.19840   102.13623
968   0.07967   0.88775   -0.41530   0.19877   0.07967   0.88775   -0.41530   0.19877   102.23999
969   0.07959   0.88794   -0.41609   0.19663   0.07959   0.88794   -0.41609   0.19663   102.25220
970   0.07966   0.88781   -0.41621   0.19681   0.07966   0.88781   -0.41621   0.19681   102.19421
971   0.07972   0.88742   -0.41618   0.19846   0.07972   0.88742   -0.41618   0.19846   102.18201
972   0.07965   0.88812   -0.41469   0.19852   0.07965   0.88812   -0.41469   0.19852   102.28577
973   0.07964   0.88772   -0.41578   0.19816   0.07964   0.88772   -0.41578   0.19816   102.29797
974   0.07977   0.88757   -0.41560   0.19950   0.07977   0.88757   -0.41560   0.19950   102.16675
975   0.07974   0.88745   -0.41609   0.19907   0.07974   0.88745   -0.41609   0.19907   102.19116
976   0.07969   0.88726   -0.41697   0.19776   0.07969   0.88726   -0.41697   0.19776   102.27356
977   0.07970   0.88739   -0.41646   0.19840   0.07970   0.88739   -0.41646   0.19840   102.26135
978   0.07985   0.88733   -0.41603   0.19980   0.07985   0.88733   -0.41603   0.19980   102.17590
979   0.07973   0.88733   -0.41697   0.19770   0.07973   0.88733   -0.41697   0.19770   102.16980
980   0.07942   0.88739   -0.41658   0.19822   0.07942   0.88739   -0.41658   0.19822   102.31628
981   0.07965   0.88739   -0.41581   0.19910   0.07965   0.88739   -0.41581   0.19910   102.27356
982   0.07979   0.88726   -0.41664   0.19855   0.07979   0.88726   -0.41664   0.19855   102.14539
983   0.07970   0.88775   -0.41643   0.19639   0.07970   0.88775   -0.41643   0.19639   102.19116
984   0.07958   0.88714   -0.41762   0.19684   0.07958   0.88714   -0.41762   0.19684   102.27661
985   0.07961   0.88745   -0.41627   0.19840   0.07961   0.88745   -0.41627   0.19840   102.20642
986   0.07975   0.88751   -0.41676   0.19715   0.07975   0.88751   -0.41676   0.19715   102.16980
987   0.07971   0.88766   -0.41682   0.19645   0.07971   0.88766   -0.41682   0.19645   102.20337
988   0.07964   0.88736   -0.41658   0.19822   0.07964   0.88736   -0.41658   0.19822   102.26440
989   0.07968   0.88720   -0.41707   0.19758   0.07968   0.88720   -0.41707   0.19758   102.24915
990   0.07973   0.88705   -0.41777   0.19742   0.07973   0.88705   -0.41777   0.19742   102.20337
991   0.07969   0.88800   -0.41575   0.19742   0.07969   0.88800   -0.41575   0.19742   102.19421
992   0.07965   0.88714   -0.41704   0.19764   0.07965   0.88714   -0.41704   0.19764   102.25220
993   0.07968   0.88800   -0.41527   0.19807   0.07968   0.88800   -0.41527   0.19807   102.15759
994   0.07975   0.88739   -0.41697   0.19730   0.07975   0.88739   -0.41697   0.19730   102.22473
995   0.07966   0.88757   -0.41667   0.19715   0.07966   0.88757   -0.41667   0.19715   102.26135
996   0.07934   0.88684   -0.41810   0.19733   0.07934   0.88684   -0.41810   0.19733   102.24915
997   0.07958   0.88751   -0.41591   0.19883   0.07958   0.88751   -0.41591   0.19883   102.18506
998   0.07972   0.88726   -0.41679   0.19794   0.07972   0.88726   -0.41679   0.19794   102.26135
999   0.07960   0.88717   -0.41697   0.19843   0.07960   0.88717   -0.41697   0.19843   102.26440
1000   0.07954   0.88720   -0.41719   0.19752   0.07954   0.88720   -0.41719   0.19752   102.19727
1001   0.07966   0.88702   -0.41746   0.19794   0.07966   0.88702   -0.41746   0.19794   102.23999
1002   0.07969   0.88726   -0.41697   0.19776   0.07969   0.88726   -0.41697   0.19776   102.27356
1003   0.07967   0.88726   -0.41740   0.19733   0.07967   0.88726   -0.41740   0.19733   102.22778
1004   0.07973   0.88730   -0.41670   0.19834   0.07973   0.88730   -0.41670   0.19834   102.11182
1005   0.07968   0.88733   -0.41682   0.19755   0.07968   0.88733   -0.41682   0.19755   102.22778
1006   0.07961   0.88708   -0.41704   0.19843   0.07961   0.88708   -0.41704   0.19843   102.31018
1007   0.07959   0.88702   -0.41746   0.19758   0.07959   0.88702   -0.41746   0.19758   102.19421
1008   0.07960   0.88714   -0.41649   0.19901   0.07960   0.88714   -0.41649   0.19901   102.18506
1009   0.07963   0.88730   -0.41746   0.19700   0.07963   0.88730   -0.41746   0.19700   102.21863
1010   0.07956   0.88711   -0.41728   0.19730   0.07956   0.88711   -0.41728   0.19730   102.32239
1011   0.07965   0.88717   -0.41737   0.19788   0.07965   0.88717   -0.41737   0.19788   102.18201
1012   0.07970   0.88711   -0.41765   0.19736   0.07970   0.88711   -0.41765   0.19736   102.13623
1013   0.07964   0.88748   -0.41664   0.19758   0.07964   0.88748   -0.41664   0.19758   102.26440
1014   0.07963   0.88748   -0.41716   0.19697   0.07963   0.88748   -0.41716   0.19697   102.28577
1015   0.07974   0.88696   -0.41737   0.19819   0.07974   0.88696   -0.41737   0.19819   102.15759
1016   0.07966   0.88726   -0.41786   0.19556   0.07966   0.88726   -0.41786   0.19556   102.21558
1017   0.07968   0.88708   -0.41682   0.19895   0.07968   0.88708   -0.41682   0.19895   102.26135
1018   0.07968   0.88733   -0.41676   0.19794   0.07968   0.88733   -0.41676   0.19794   102.23999
1019   0.07972   0.88711   -0.41700   0.19819   0.07972   0.88711   -0.41700   0.19819   102.19116
1020   0.07968   0.88730   -0.41688   0.19803   0.07968   0.88730   -0.41688   0.19803   102.19421
1021   0.07954   0.88748   -0.41688   0.19724   0.07954   0.88748   -0.41688   0.19724   102.31323
1022   0.07954   0.88699   -0.41774   0.19703   0.07954   0.88699   -0.41774   0.19703   102.23083
1023   0.07966   0.88656   -0.41798   0.19877   0.07966   0.88656   -0.41798   0.19877   102.21558
1024   0.07965   0.88708   -0.41765   0.19739   0.07965   0.88708   -0.41765   0.19739   102.21863
1025   0.07963   0.88702   -0.41762   0.19785   0.07963   0.88702   -0.41762   0.19785   102.28577
1026   0.07968   0.88656   -0.41816   0.19868   0.07968   0.88656   -0.41816   0.19868   102.19421
1027   0.07971   0.88717   -0.41734   0.19703   0.07971   0.88717   -0.41734   0.19703   102.19116
1028   0.07969   0.88714   -0.41765   0.19739   0.07969   0.88714   -0.41765   0.19739   102.22778
1029   0.07963   0.88720   -0.41820   0.19572   0.07963   0.88720   -0.41820   0.19572   102.25220
1030   0.07969   0.88653   -0.41783   0.19926   0.07969   0.88653   -0.41783   0.19926   102.19421
1031   0.07971   0.88614   -0.41850   0.19919   0.07971   0.88614   -0.41850   0.19919   102.24915
1032   0.07970   0.88659   -0.41813   0.19831   0.07970   0.88659   -0.41813   0.19831   102.29492
1033   0.07968   0.88696   -0.41771   0.19764   0.07968   0.88696   -0.41771   0.19764   102.21558
1034   0.07970   0.88678   -0.41810   0.19764   0.07970   0.88678   -0.41810   0.19764   102.20337
1035   0.07958   0.88714   -0.41762   0.19700   0.07958   0.88714   -0.41762   0.19700   102.27661
1036   0.07960   0.88714   -0.41722   0.19736   0.07960   0.88714   -0.41722   0.19736   102.29797
1037   0.07971   0.88726   -0.41673   0.19831   0.07971   0.88726   -0.41673   0.19831   102.15759
1038   0.07964   0.88668   -0.41902   0.19620   0.07964   0.88668   -0.41902   0.19620   102.20642
1039   0.07962   0.88726   -0.41707   0.19788   0.07962   0.88726   -0.41707   0.19788   102.26440
1040   0.07966   0.88708   -0.41725   0.19800   0.07966   0.88708   -0.41725   0.19800   102.23999
1041   0.07976   0.88699   -0.41731   0.19834   0.07976   0.88699   -0.41731   0.19834   102.14539
1042   0.07972   0.88745   -0.41630   0.19843   0.07972   0.88745   -0.41630   0.19843   102.16980
1043   0.07967   0.88705   -0.41682   0.19886   0.07967   0.88705   -0.41682   0.19886   102.28577
1044   0.07969   0.88723   -0.41633   0.19959   0.07969   0.88723   -0.41633   0.19959   102.20337
1045   0.07980   0.88672   -0.41807   0.19779   0.07980   0.88672   -0.41807   0.19779   102.16675
1046   0.07976   0.88751   -0.41636   0.19800   0.07976   0.88751   -0.41636   0.19800   102.17896
1047   0.07964   0.88662   -0.41820   0.19779   0.07964   0.88662   -0.41820   0.19779   102.31018
1048   0.07967   0.88659   -0.41774   0.19892   0.07967   0.88659   -0.41774   0.19892   102.22778
1049   0.07969   0.88684   -0.41752   0.19871   0.07969   0.88684   -0.41752   0.19871   102.15759
1050   0.07966   0.88736   -0.41643   0.19868   0.07966   0.88736   -0.41643   0.19868   102.20642
1051   0.07959   0.88693   -0.41758   0.19834   0.07959   0.88693   -0.41758   0.19834   102.28882
1052   0.07973   0.88708   -0.41704   0.19825   0.07973   0.88708   -0.41704   0.19825   102.19116
1053   0.07973   0.88720   -0.41658   0.19883   0.07973   0.88720   -0.41658   0.19883   102.16980
1054   0.07969   0.88653   -0.41838   0.19843   0.07969   0.88653   -0.41838   0.19843   102.27356
1055   0.07970   0.88656   -0.41826   0.19782   0.07970   0.88656   -0.41826   0.19782   102.26135
1056   0.07974   0.88659   -0.41786   0.19941   0.07974   0.88659   -0.41786   0.19941   102.16980
1057   0.07975   0.88656   -0.41789   0.19864   0.07975   0.88656   -0.41789   0.19864   102.20337
1058   0.07972   0.88583   -0.41911   0.19944   0.07972   0.88583   -0.41911   0.19944   102.29492
1059   0.07985   0.88653   -0.41807   0.19895   0.07985   0.88653   -0.41807   0.19895   102.22168
1060   0.07984   0.88665   -0.41765   0.19922   0.07984   0.88665   -0.41765   0.19922   102.18811
1061   0.07959   0.88571   -0.41987   0.19819   0.07959   0.88571   -0.41987   0.19819   102.24304
1062   0.07959   0.88687   -0.41737   0.19849   0.07959   0.88687   -0.41737   0.19849   102.23083
1063   0.07967   0.88684   -0.41661   0.20057   0.07967   0.88684   -0.41661   0.20057   102.19421
1064   0.07966   0.88778   -0.41597   0.19788   0.07966   0.88778   -0.41597   0.19788   102.22778
1065   0.07960   0.88778   -0.41630   0.19721   0.07960   0.88778   -0.41630   0.19721   102.29797
1066   0.07966   0.88769   -0.41643   0.19727   0.07966   0.88769   -0.41643   0.19727   102.25220
1067   0.07971   0.88754   -0.41661   0.19718   0.07971   0.88754   -0.41661   0.19718   102.19116
1068   0.07970   0.88733   -0.41731   0.19648   0.07970   0.88733   -0.41731   0.19648   102.24915
1069   0.07966   0.88803   -0.41585   0.19678   0.07966   0.88803   -0.41585   0.19678   102.27356
1070   0.07971   0.88763   -0.41612   0.19803   0.07971   0.88763   -0.41612   0.19803   102.20337
1071   0.07975   0.88726   -0.41719   0.19733   0.07975   0.88726   -0.41719   0.19733   102.19116
1072   0.07968   0.88760   -0.41630   0.19752   0.07968   0.88760   -0.41630   0.19752   102.23999
1073   0.07970   0.88788   -0.41667   0.19575   0.07970   0.88788   -0.41667   0.19575   102.29492
1074   0.07977   0.88763   -0.41661   0.19687   0.07977   0.88763   -0.41661   0.19687   102.19116
1075   0.07972   0.88778   -0.41578   0.19782   0.07972   0.88778   -0.41578   0.19782   102.18201
1076   0.07948   0.88730   -0.41758   0.19611   0.07948   0.88730   -0.41758   0.19611   102.29187
1077   0.07949   0.88690   -0.41795   0.19703   0.07949   0.88690   -0.41795   0.19703   102.31323
1078   0.07940   0.88757   -0.41627   0.19791   0.07940   0.88757   -0.41627   0.19791   102.18811
1079   0.07962   0.88730   -0.41710   0.19721   0.07962   0.88730   -0.41710   0.19721   102.23083
1080   0.07969   0.88726   -0.41710   0.19776   0.07969   0.88726   -0.41710   0.19776   102.27356
1081   0.07960   0.88702   -0.41813   0.19611   0.07960   0.88702   -0.41813   0.19611   102.26440
1082   0.07960   0.88733   -0.41743   0.19602   0.07960   0.88733   -0.41743   0.19602   102.16064
1083   0.07956   0.88736   -0.41734   0.19666   0.07956   0.88736   -0.41734   0.19666   102.20642
1084   0.07968   0.88739   -0.41682   0.19700   0.07968   0.88739   -0.41682   0.19700   102.30713
1085   0.07970   0.88751   -0.41652   0.19761   0.07970   0.88751   -0.41652   0.19761   102.26135
1086   0.07974   0.88766   -0.41646   0.19709   0.07974   0.88766   -0.41646   0.19709   102.16980
1087   0.07966   0.88742   -0.41710   0.19691   0.07966   0.88742   -0.41710   0.19691   102.20642
1088   0.07961   0.88794   -0.41606   0.19697   0.07961   0.88794   -0.41606   0.19697   102.25220
1089   0.07968   0.88730   -0.41704   0.19742   0.07968   0.88730   -0.41704   0.19742   102.21558
1090   0.07965   0.88800   -0.41606   0.19639   0.07965   0.88800   -0.41606   0.19639   102.16064
1091   0.07966   0.88745   -0.41707   0.19678   0.07966   0.88745   -0.41707   0.19678   102.21558
1092   0.07964   0.88745   -0.41707   0.19694   0.07964   0.88745   -0.41707   0.19694   102.25220
1093   0.07972   0.88705   -0.41758   0.19776   0.07972   0.88705   -0.41758   0.19776   102.19116
1094   0.07978   0.88699   -0.41804   0.19691   0.07978   0.88699   -0.41804   0.19691   102.25830
1095   0.07976   0.88736   -0.41664   0.19785   0.07976   0.88736   -0.41664   0.19785   102.27051
1096   0.07978   0.88766   -0.41670   0.19669   0.07978   0.88766   -0.41670   0.19669   102.21252
1097   0.07975   0.88757   -0.41646   0.19813   0.07975   0.88757   -0.41646   0.19813   102.20337
1098   0.07979   0.88766   -0.41664   0.19697   0.07979   0.88766   -0.41664   0.19697   102.24609
1099   0.07976   0.88720   -0.41713   0.19797   0.07976   0.88720   -0.41713   0.19797   102.24915
1100   0.07978   0.88800   -0.41624   0.19617   0.07978   0.88800   -0.41624   0.19617   102.15759
1101   0.07973   0.88736   -0.41804   0.19556   0.07973   0.88736   -0.41804   0.19556   102.15759
1102   0.07964   0.88754   -0.41713   0.19648   0.07964   0.88754   -0.41713   0.19648   102.26440
1103   0.07956   0.88745   -0.41700   0.19691   0.07956   0.88745   -0.41700   0.19691   102.24304
1104   0.07959   0.88791   -0.41627   0.19611   0.07959   0.88791   -0.41627   0.19611   102.14844
1105   0.07966   0.88726   -0.41710   0.19752   0.07966   0.88726   -0.41710   0.19752   102.21558
1106   0.07962   0.88757   -0.41670   0.19712   0.07962   0.88757   -0.41670   0.19712   102.29797
1107   0.07966   0.88726   -0.41685   0.19803   0.07966   0.88726   -0.41685   0.19803   102.26135
1108   0.07974   0.88690   -0.41762   0.19782   0.07974   0.88690   -0.41762   0.19782   102.17896
1109   0.07969   0.88711   -0.41838   0.19599   0.07969   0.88711   -0.41838   0.19599   102.26135
1110   0.07964   0.88739   -0.41758   0.19633   0.07964   0.88739   -0.41758   0.19633   102.28577
1111   0.07973   0.88675   -0.41807   0.19816   0.07973   0.88675   -0.41807   0.19816   102.20337
1112   0.07977   0.88751   -0.41673   0.19749   0.07977   0.88751   -0.41673   0.19749   102.16675
1113   0.07967   0.88751   -0.41691   0.19730   0.07967   0.88751   -0.41691   0.19730   102.26135
1114   0.07962   0.88748   -0.41771   0.19526   0.07962   0.88748   -0.41771   0.19526   102.29797
1115   0.07967   0.88736   -0.41771   0.19614   0.07967   0.88736   -0.41771   0.19614   102.20337
1116   0.07970   0.88687   -0.41801   0.19727   0.07970   0.88687   -0.41801   0.19727   102.20337
1117   0.07958   0.88769   -0.41704   0.19614   0.07958   0.88769   -0.41704   0.19614   102.26440
1118   0.07961   0.88766   -0.41652   0.19703   0.07961   0.88766   -0.41652   0.19703   102.26440
1119   0.07969   0.88696   -0.41758   0.19779   0.07969   0.88696   -0.41758   0.19779   102.20337
1120   0.07972   0.88714   -0.41768   0.19654   0.07972   0.88714   -0.41768   0.19654   102.22778
1121   0.07965   0.88708   -0.41737   0.19742   0.07965   0.88708   -0.41737   0.19742   102.29797
1122   0.07969   0.88684   -0.41813   0.19727   0.07969   0.88684   -0.41813   0.19727   102.26135
1123   0.07977   0.88736   -0.41670   0.19782   0.07977   0.88736   -0.41670   0.19782   102.19116
1124   0.07971   0.88708   -0.41758   0.19730   0.07971   0.88708   -0.41758   0.19730   102.20337
1125   0.07967   0.88684   -0.41829   0.19703   0.07967   0.88684   -0.41829   0.19703   102.29797
1126   0.07976   0.88617   -0.41899   0.19800   0.07976   0.88617   -0.41899   0.19800   102.23694
1127   0.07978   0.88678   -0.41832   0.19703   0.07978   0.88678   -0.41832   0.19703   102.22473
1128   0.07970   0.88687   -0.41807   0.19730   0.07970   0.88687   -0.41807   0.19730   102.27356
1129   0.07967   0.88672   -0.41829   0.19752   0.07967   0.88672   -0.41829   0.19752   102.27356
1130   0.07973   0.88662   -0.41807   0.19834   0.07973   0.88662   -0.41807   0.19834   102.17896
1131   0.07963   0.88693   -0.41795   0.19724   0.07963   0.88693   -0.41795   0.19724   102.26440
1132   0.07969   0.88678   -0.41829   0.19678   0.07969   0.88678   -0.41829   0.19678   102.24915
1133   0.07968   0.88705   -0.41789   0.19666   0.07968   0.88705   -0.41789   0.19666   102.18201
1134   0.07971   0.88702   -0.41743   0.19803   0.07971   0.88702   -0.41743   0.19803   102.20337
1135   0.07967   0.88702   -0.41774   0.19742   0.07967   0.88702   -0.41774   0.19742   102.27356
1136   0.07966   0.88711   -0.41752   0.19730   0.07966   0.88711   -0.41752   0.19730   102.27356
1137   0.07974   0.88684   -0.41768   0.19849   0.07974   0.88684   -0.41768   0.19849   102.15759
1138   0.07973   0.88668   -0.41758   0.19886   0.07973   0.88668   -0.41758   0.19886   102.21558
1139   0.07965   0.88638   -0.41957   0.19623   0.07965   0.88638   -0.41957   0.19623   102.28577
1140   0.07972   0.88662   -0.41865   0.19691   0.07972   0.88662   -0.41865   0.19691   102.29492
1141   0.07978   0.88675   -0.41804   0.19745   0.07978   0.88675   -0.41804   0.19745   102.17896
1142   0.07972   0.88675   -0.41820   0.19803   0.07972   0.88675   -0.41820   0.19803   102.21558
1143   0.07962   0.88638   -0.41832   0.19849   0.07962   0.88638   -0.41832   0.19849   102.29797
1144   0.07964   0.88681   -0.41844   0.19675   0.07964   0.88681   -0.41844   0.19675   102.27356
1145   0.07964   0.88653   -0.41835   0.19807   0.07964   0.88653   -0.41835   0.19807   102.16064
1146   0.07970   0.88629   -0.41896   0.19752   0.07970   0.88629   -0.41896   0.19752   102.22778
1147   0.07961   0.88647   -0.41844   0.19825   0.07961   0.88647   -0.41844   0.19825   102.28577
1148   0.07964   0.88675   -0.41816   0.19816   0.07964   0.88675   -0.41816   0.19816   102.21863
1149   0.07969   0.88614   -0.41923   0.19834   0.07969   0.88614   -0.41923   0.19834   102.22778
1150   0.07969   0.88626   -0.41966   0.19697   0.07969   0.88626   -0.41966   0.19697   102.23999
1151   0.07965   0.88672   -0.41804   0.19800   0.07965   0.88672   -0.41804   0.19800   102.31018
1152   0.07972   0.88665   -0.41865   0.19727   0.07972   0.88665   -0.41865   0.19727   102.23694
1153   0.07976   0.88659   -0.41874   0.19721   0.07976   0.88659   -0.41874   0.19721   102.19116
1154   0.07973   0.88644   -0.41926   0.19660   0.07973   0.88644   -0.41926   0.19660   102.23694
1155   0.07970   0.88659   -0.41835   0.19749   0.07970   0.88659   -0.41835   0.19749   102.29492
1156   0.07972   0.88629   -0.41874   0.19831   0.07972   0.88629   -0.41874   0.19831   102.20337
1157   0.07972   0.88641   -0.41893   0.19745   0.07972   0.88641   -0.41893   0.19745   102.26135
1158   0.07954   0.88650   -0.41908   0.19697   0.07954   0.88650   -0.41908   0.19697   102.25525
1159   0.07938   0.88598   -0.41926   0.19871   0.07938   0.88598   -0.41926   0.19871   102.27051
1160   0.07961   0.88665   -0.41813   0.19803   0.07961   0.88665   -0.41813   0.19803   102.23083
1161   0.07971   0.88705   -0.41771   0.19709   0.07971   0.88705   -0.41771   0.19709   102.26135
1162   0.07966   0.88629   -0.41935   0.19681   0.07966   0.88629   -0.41935   0.19681   102.25220
1163   0.07966   0.88650   -0.41881   0.19730   0.07966   0.88650   -0.41881   0.19730   102.22778
1164   0.07970   0.88656   -0.41850   0.19761   0.07970   0.88656   -0.41850   0.19761   102.21558
1165   0.07974   0.88668   -0.41862   0.19718   0.07974   0.88668   -0.41862   0.19718   102.23694
1166   0.07976   0.88650   -0.41881   0.19727   0.07976   0.88650   -0.41881   0.19727   102.23694
1167   0.07978   0.88678   -0.41804   0.19791   0.07978   0.88678   -0.41804   0.19791   102.15454
1168   0.07975   0.88604   -0.42015   0.19663   0.07975   0.88604   -0.42015   0.19663   102.26135
1169   0.07969   0.88620   -0.41929   0.19776   0.07969   0.88620   -0.41929   0.19776   102.28577
1170   0.07973   0.88607   -0.41948   0.19742   0.07973   0.88607   -0.41948   0.19742   102.26135
1171   0.07977   0.88641   -0.41893   0.19755   0.07977   0.88641   -0.41893   0.19755   102.19116
1172   0.07954   0.88711   -0.41835   0.19547   0.07954   0.88711   -0.41835   0.19547   102.21863
1173   0.07960   0.88610   -0.41969   0.19712   0.07960   0.88610   -0.41969   0.19712   102.32239
1174   0.07968   0.88607   -0.41939   0.19813   0.07968   0.88607   -0.41939   0.19813   102.18201
1175   0.07969   0.88617   -0.41954   0.19749   0.07969   0.88617   -0.41954   0.19749   102.15759
1176   0.07966   0.88653   -0.41884   0.19724   0.07966   0.88653   -0.41884   0.19724   102.27356
1177   0.07966   0.88656   -0.41862   0.19724   0.07966   0.88656   -0.41862   0.19724   102.28577
1178   0.07985   0.88623   -0.41914   0.19807   0.07985   0.88623   -0.41914   0.19807   102.20032
1179   0.07970   0.88681   -0.41868   0.19602   0.07970   0.88681   -0.41868   0.19602   102.15759
1180   0.07955   0.88629   -0.41923   0.19733   0.07955   0.88629   -0.41923   0.19733   102.28882
1181   0.07965   0.88617   -0.41954   0.19706   0.07965   0.88617   -0.41954   0.19706   102.31934
1182   0.07983   0.88653   -0.41926   0.19645   0.07983   0.88653   -0.41926   0.19645   102.17896
1183   0.07976   0.88641   -0.41929   0.19657   0.07976   0.88641   -0.41929   0.19657   102.22473
1184   0.07966   0.88607   -0.42000   0.19694   0.07966   0.88607   -0.42000   0.19694   102.29797
1185   0.07962   0.88614   -0.42003   0.19651   0.07962   0.88614   -0.42003   0.19651   102.27661
1186   0.07965   0.88653   -0.41899   0.19639   0.07965   0.88653   -0.41899   0.19639   102.21863
1187   0.07972   0.88629   -0.41893   0.19776   0.07972   0.88629   -0.41893   0.19776   102.23694
1188   0.07965   0.88617   -0.41981   0.19675   0.07965   0.88617   -0.41981   0.19675   102.28577
1189   0.07966   0.88607   -0.41990   0.19715   0.07966   0.88607   -0.41990   0.19715   102.22778
1190   0.07967   0.88656   -0.41832   0.19822   0.07967   0.88656   -0.41832   0.19822   102.22778
1191   0.07967   0.88614   -0.41908   0.19843   0.07967   0.88614   -0.41908   0.19843   102.23999
1192   0.07973   0.88650   -0.41935   0.19630   0.07973   0.88650   -0.41935   0.19630   102.24915
1193   0.07975   0.88604   -0.41877   0.19910   0.07975   0.88604   -0.41877   0.19910   102.22473
1194   0.07992   0.88589   -0.42045   0.19691   0.07992   0.88589   -0.42045   0.19691   102.22168
1195   0.07971   0.88659   -0.41890   0.19657   0.07971   0.88659   -0.41890   0.19657   102.27356
1196   0.07945   0.88659   -0.41856   0.19794   0.07945   0.88659   -0.41856   0.19794   102.23389
1197   0.07970   0.88614   -0.41960   0.19745   0.07970   0.88614   -0.41960   0.19745   102.22778
1198   0.07976   0.88601   -0.41945   0.19828   0.07976   0.88601   -0.41945   0.19828   102.26135
1199   0.07959   0.88614   -0.41990   0.19694   0.07959   0.88614   -0.41990   0.19694   102.26440
1200   0.07951   0.88580   -0.41972   0.19843   0.07951   0.88580   -0.41972   0.19843   102.22168
1201   0.07964   0.88665   -0.41847   0.19749   0.07964   0.88665   -0.41847   0.19749   102.22778
1202   0.07962   0.88644   -0.41865   0.19825   0.07962   0.88644   -0.41865   0.19825   102.26440
1203   0.07959   0.88586   -0.42051   0.19715   0.07959   0.88586   -0.42051   0.19715   102.27661
1204   0.07966   0.88565   -0.42012   0.19819   0.07966   0.88565   -0.42012   0.19819   102.16064
1205   0.07971   0.88638   -0.41917   0.19736   0.07971   0.88638   -0.41917   0.19736   102.22778
1206   0.07966   0.88644   -0.41926   0.19684   0.07966   0.88644   -0.41926   0.19684   102.31934
1207   0.07966   0.88635   -0.41887   0.19773   0.07966   0.88635   -0.41887   0.19773   102.27356
1208   0.07976   0.88641   -0.41868   0.19782   0.07976   0.88641   -0.41868   0.19782   102.15759
1209   0.07972   0.88647   -0.41920   0.19660   0.07972   0.88647   -0.41920   0.19660   102.26135
1210   0.07966   0.88650   -0.41881   0.19739   0.07966   0.88650   -0.41881   0.19739   102.30713
1211   0.07969   0.88607   -0.42018   0.19681   0.07969   0.88607   -0.42018   0.19681   102.24915
1212   0.07975   0.88601   -0.41957   0.19788   0.07975   0.88601   -0.41957   0.19788   102.17896
1213   0.07960   0.88650   -0.41896   0.19706   0.07960   0.88650   -0.41896   0.19706   102.26440
1214   0.07955   0.88668   -0.41877   0.19657   0.07955   0.88668   -0.41877   0.19657   102.31323
1215   0.07965   0.88580   -0.41987   0.19794   0.07965   0.88580   -0.41987   0.19794   102.25220
1216   0.07970   0.88632   -0.41932   0.19715   0.07970   0.88632   -0.41932   0.19715   102.18201
1217   0.07966   0.88659   -0.41884   0.19706   0.07966   0.88659   -0.41884   0.19706   102.25220
1218   0.07965   0.88668   -0.41853   0.19733   0.07965   0.88668   -0.41853   0.19733   102.27356
1219   0.07971   0.88626   -0.41935   0.19700   0.07971   0.88626   -0.41935   0.19700   102.23694
1220   0.07973   0.88626   -0.41966   0.19697   0.07973   0.88626   -0.41966   0.19697   102.19116
1221   0.07968   0.88656   -0.41899   0.19712   0.07968   0.88656   -0.41899   0.19712   102.23999
1222   0.07965   0.88684   -0.41874   0.19572   0.07965   0.88684   -0.41874   0.19572   102.28577
1223   0.07968   0.88653   -0.41948   0.19553   0.07968   0.88653   -0.41948   0.19553   102.22778
1224   0.07966   0.88662   -0.41939   0.19526   0.07966   0.88662   -0.41939   0.19526   102.23999
1225   0.07959   0.88623   -0.42039   0.19483   0.07959   0.88623   -0.42039   0.19483   102.26440
1226   0.07965   0.88620   -0.41997   0.19675   0.07965   0.88620   -0.41997   0.19675   102.23999
1227   0.07959   0.88571   -0.42042   0.19742   0.07959   0.88571   -0.42042   0.19742   102.23083
1228   0.07966   0.88537   -0.42137   0.19678   0.07966   0.88537   -0.42137   0.19678   102.26135
1229   0.07961   0.88583   -0.42042   0.19666   0.07961   0.88583   -0.42042   0.19666   102.27661
1230   0.07967   0.88574   -0.42061   0.19739   0.07967   0.88574   -0.42061   0.19739   102.21558
1231   0.07966   0.88583   -0.42003   0.19767   0.07966   0.88583   -0.42003   0.19767   102.23999
1232   0.07968   0.88534   -0.42186   0.19568   0.07968   0.88534   -0.42186   0.19568   102.29797
1233   0.07971   0.88473   -0.42280   0.19706   0.07971   0.88473   -0.42280   0.19706   102.27356
1234   0.07976   0.88574   -0.42055   0.19697   0.07976   0.88574   -0.42055   0.19697   102.20337
1235   0.07971   0.88610   -0.42015   0.19633   0.07971   0.88610   -0.42015   0.19633   102.26135
1236   0.07968   0.88562   -0.42155   0.19544   0.07968   0.88562   -0.42155   0.19544   102.30713
1237   0.07975   0.88583   -0.42061   0.19684   0.07975   0.88583   -0.42061   0.19684   102.20337
1238   0.07972   0.88549   -0.42137   0.19645   0.07972   0.88549   -0.42137   0.19645   102.20337
1239   0.07966   0.88601   -0.42048   0.19568   0.07966   0.88601   -0.42048   0.19568   102.29797
1240   0.07962   0.88583   -0.42070   0.19660   0.07962   0.88583   -0.42070   0.19660   102.27661
1241   0.07966   0.88629   -0.41939   0.19724   0.07966   0.88629   -0.41939   0.19724   102.21558
1242   0.07967   0.88626   -0.41975   0.19630   0.07967   0.88626   -0.41975   0.19630   102.21558
1243   0.07962   0.88614   -0.41984   0.19724   0.07962   0.88614   -0.41984   0.19724   102.28577
1244   0.07961   0.88617   -0.42024   0.19565   0.07961   0.88617   -0.42024   0.19565   102.27661
1245   0.07973   0.88607   -0.42027   0.19608   0.07973   0.88607   -0.42027   0.19608   102.19116
1246   0.07970   0.88540   -0.42131   0.19681   0.07970   0.88540   -0.42131   0.19681   102.22778
1247   0.07962   0.88580   -0.42100   0.19593   0.07962   0.88580   -0.42100   0.19593   102.35596
1248   0.07971   0.88736   -0.41780   0.19553   0.07971   0.88736   -0.41780   0.19553   102.23694
1249   0.07978   0.88617   -0.41987   0.19666   0.07978   0.88617   -0.41987   0.19666   102.19116
1250   0.07972   0.88586   -0.42039   0.19645   0.07972   0.88586   -0.42039   0.19645   102.26135
1251   0.07967   0.88632   -0.41957   0.19645   0.07967   0.88632   -0.41957   0.19645   102.30713
1252   0.07971   0.88638   -0.41951   0.19645   0.07971   0.88638   -0.41951   0.19645   102.27356
1253   0.07976   0.88638   -0.41972   0.19541   0.07976   0.88638   -0.41972   0.19541   102.22473
1254   0.07961   0.88607   -0.42067   0.19568   0.07961   0.88607   -0.42067   0.19568   102.27661
1255   0.07956   0.88589   -0.42073   0.19578   0.07956   0.88589   -0.42073   0.19578   102.31018
1256   0.07970   0.88583   -0.42079   0.19630   0.07970   0.88583   -0.42079   0.19630   102.24915
1257   0.07969   0.88571   -0.42170   0.19480   0.07969   0.88571   -0.42170   0.19480   102.23999
1258   0.07970   0.88549   -0.42174   0.19529   0.07970   0.88549   -0.42174   0.19529   102.28577
1259   0.07977   0.88510   -0.42271   0.19510   0.07977   0.88510   -0.42271   0.19510   102.30713
1260   0.07980   0.88507   -0.42314   0.19471   0.07980   0.88507   -0.42314   0.19471   102.23694
1261   0.07972   0.88473   -0.42344   0.19510   0.07972   0.88473   -0.42344   0.19510   102.26135
1262   0.07962   0.88467   -0.42262   0.19791   0.07962   0.88467   -0.42262   0.19791   102.28577
1263   0.07976   0.88403   -0.42271   0.20005   0.07976   0.88403   -0.42271   0.20005   102.17896
1264   0.07978   0.88595   -0.42024   0.19691   0.07978   0.88595   -0.42024   0.19691   102.23694
1265   0.07966   0.88598   -0.41960   0.19797   0.07966   0.88598   -0.41960   0.19797   102.26135
1266   0.07965   0.88592   -0.41951   0.19822   0.07965   0.88592   -0.41951   0.19822   102.26440
1267   0.07968   0.88620   -0.41887   0.19889   0.07968   0.88620   -0.41887   0.19889   102.21558
1268   0.07960   0.88632   -0.41945   0.19660   0.07960   0.88632   -0.41945   0.19660   102.21863
1269   0.07963   0.88629   -0.41954   0.19663   0.07963   0.88629   -0.41954   0.19663   102.27661
1270   0.07963   0.88601   -0.41997   0.19745   0.07963   0.88601   -0.41997   0.19745   102.26440
1271   0.07970   0.88562   -0.42042   0.19779   0.07970   0.88562   -0.42042   0.19779   102.19116
1272   0.07969   0.88641   -0.41908   0.19773   0.07969   0.88641   -0.41908   0.19773   102.24915
1273   0.07962   0.88553   -0.42097   0.19712   0.07962   0.88553   -0.42097   0.19712   102.31018
1274   0.07971   0.88684   -0.41835   0.19678   0.07971   0.88684   -0.41835   0.19678   102.23694
1275   0.07978   0.88696   -0.41820   0.19694   0.07978   0.88696   -0.41820   0.19694   102.15759
1276   0.07970   0.88693   -0.41823   0.19620   0.07970   0.88693   -0.41823   0.19620   102.28577
1277   0.07957   0.88760   -0.41673   0.19672   0.07957   0.88760   -0.41673   0.19672   102.32239
1278   0.07951   0.88775   -0.41664   0.19642   0.07951   0.88775   -0.41664   0.19642   102.19727
1279   0.07966   0.88626   -0.41920   0.19788   0.07966   0.88626   -0.41920   0.19788   102.19421
1280   0.07967   0.88705   -0.41865   0.19535   0.07967   0.88705   -0.41865   0.19535   102.27356
1281   0.07959   0.88733   -0.41826   0.19507   0.07959   0.88733   -0.41826   0.19507   102.29797
1282   0.07953   0.88693   -0.41856   0.19556   0.07953   0.88693   -0.41856   0.19556   102.22168
1283   0.07963   0.88726   -0.41749   0.19697   0.07963   0.88726   -0.41749   0.19697   102.19421
1284   0.07958   0.88699   -0.41829   0.19617   0.07958   0.88699   -0.41829   0.19617   102.29797
1285   0.07964   0.88675   -0.41826   0.19715   0.07964   0.88675   -0.41826   0.19715   102.31018
1286   0.07966   0.88699   -0.41758   0.19761   0.07966   0.88699   -0.41758   0.19761   102.19421
1287   0.07967   0.88730   -0.41777   0.19587   0.07967   0.88730   -0.41777   0.19587   102.23999
1288   0.07965   0.88693   -0.41823   0.19657   0.07965   0.88693   -0.41823   0.19657   102.29797
1289   0.07973   0.88647   -0.41890   0.19706   0.07973   0.88647   -0.41890   0.19706   102.22778
1290   0.07972   0.88723   -0.41820   0.19541   0.07972   0.88723   -0.41820   0.19541   102.16980
1291   0.07968   0.88702   -0.41823   0.19617   0.07968   0.88702   -0.41823   0.19617   102.22778
1292   0.07968   0.88733   -0.41725   0.19681   0.07968   0.88733   -0.41725   0.19681   102.29797
1293   0.07977   0.88684   -0.41829   0.19678   0.07977   0.88684   -0.41829   0.19678   102.22473
1294   0.07979   0.88748   -0.41725   0.19593   0.07979   0.88748   -0.41725   0.19593   102.22473
1295   0.07967   0.88720   -0.41780   0.19630   0.07967   0.88720   -0.41780   0.19630   102.26135
1296   0.07964   0.88717   -0.41752   0.19709   0.07964   0.88717   -0.41752   0.19709   102.25220
1297   0.07977   0.88730   -0.41731   0.19663   0.07977   0.88730   -0.41731   0.19663   102.21252
1298   0.07970   0.88675   -0.41835   0.19660   0.07970   0.88675   -0.41835   0.19660   102.31934
1299   0.07966   0.88733   -0.41801   0.19501   0.07966   0.88733   -0.41801   0.19501   102.29797
1300   0.07968   0.88739   -0.41777   0.19587   0.07968   0.88739   -0.41777   0.19587   102.24915
1301   0.07971   0.88766   -0.41719   0.19526   0.07971   0.88766   -0.41719   0.19526   102.21558
1302   0.07966   0.88733   -0.41771   0.19578   0.07966   0.88733   -0.41771   0.19578   102.27356
1303   0.07963   0.88726   -0.41816   0.19520   0.07963   0.88726   -0.41816   0.19520   102.27661
1304   0.07970   0.88751   -0.41743   0.19572   0.07970   0.88751   -0.41743   0.19572   102.16980
1305   0.07974   0.88681   -0.41823   0.19706   0.07974   0.88681   -0.41823   0.19706   102.20337
1306   0.07967   0.88778   -0.41646   0.19672   0.07967   0.88778   -0.41646   0.19672   102.26135
1307   0.07966   0.88772   -0.41643   0.19669   0.07966   0.88772   -0.41643   0.19669   102.23999
1308   0.07966   0.88733   -0.41694   0.19715   0.07966   0.88733   -0.41694   0.19715   102.16064
1309   0.07954   0.88800   -0.41618   0.19599   0.07954   0.88800   -0.41618   0.19599   102.19727
1310   0.07960   0.88754   -0.41728   0.19587   0.07960   0.88754   -0.41728   0.19587   102.33459
1311   0.07959   0.88818   -0.41588   0.19626   0.07959   0.88818   -0.41588   0.19626   102.20642
1312   0.07966   0.88791   -0.41707   0.19495   0.07966   0.88791   -0.41707   0.19495   102.13623
1313   0.07965   0.88763   -0.41704   0.19608   0.07965   0.88763   -0.41704   0.19608   102.23999
1314   0.07964   0.88809   -0.41581   0.19654   0.07964   0.88809   -0.41581   0.19654   102.27356
1315   0.07971   0.88733   -0.41697   0.19755   0.07971   0.88733   -0.41697   0.19755   102.19116
1316   0.07977   0.88730   -0.41716   0.19730   0.07977   0.88730   -0.41716   0.19730   102.15759
1317   0.07972   0.88800   -0.41603   0.19654   0.07972   0.88800   -0.41603   0.19654   102.22778
1318   0.07966   0.88775   -0.41630   0.19684   0.07966   0.88775   -0.41630   0.19684   102.27356
1319   0.07969   0.88794   -0.41566   0.19742   0.07969   0.88794   -0.41566   0.19742   102.18201
1320   0.07972   0.88794   -0.41655   0.19596   0.07972   0.88794   -0.41655   0.19596   102.16980
1321   0.07967   0.88824   -0.41548   0.19672   0.07967   0.88824   -0.41548   0.19672   102.25220
1322   0.07966   0.88778   -0.41557   0.19831   0.07966   0.88778   -0.41557   0.19831   102.26135
1323   0.07964   0.88769   -0.41618   0.19752   0.07964   0.88769   -0.41618   0.19752   102.18201
1324   0.07971   0.88784   -0.41609   0.19703   0.07971   0.88784   -0.41609   0.19703   102.20337
1325   0.07965   0.88797   -0.41578   0.19730   0.07965   0.88797   -0.41578   0.19730   102.23999
1326   0.07963   0.88842   -0.41487   0.19724   0.07963   0.88842   -0.41487   0.19724   102.18201
1327   0.07974   0.88763   -0.41627   0.19758   0.07974   0.88763   -0.41627   0.19758   102.19116
1328   0.07972   0.88803   -0.41585   0.19709   0.07972   0.88803   -0.41585   0.19709   102.19116
1329   0.07965   0.88797   -0.41566   0.19715   0.07965   0.88797   -0.41566   0.19715   102.23999
1330   0.07971   0.88821   -0.41478   0.19816   0.07971   0.88821   -0.41478   0.19816   102.20337
1331   0.07978   0.88830   -0.41536   0.19648   0.07978   0.88830   -0.41536   0.19648   102.20337
1332   0.07972   0.88784   -0.41639   0.19605   0.07972   0.88784   -0.41639   0.19605   102.27356
1333   0.07975   0.88730   -0.41725   0.19697   0.07975   0.88730   -0.41725   0.19697   102.26135
1334   0.07978   0.88818   -0.41496   0.19782   0.07978   0.88818   -0.41496   0.19782   102.16675
1335   0.07968   0.88778   -0.41594   0.19758   0.07968   0.88778   -0.41594   0.19758   102.23999
1336   0.07965   0.88794   -0.41575   0.19739   0.07965   0.88794   -0.41575   0.19739   102.27356
1337   0.07967   0.88818   -0.41487   0.19822   0.07967   0.88818   -0.41487   0.19822   102.20337
1338   0.07970   0.88803   -0.41630   0.19608   0.07970   0.88803   -0.41630   0.19608   102.16980
1339   0.07966   0.88852   -0.41453   0.19706   0.07966   0.88852   -0.41453   0.19706   102.22778
1340   0.07965   0.88855   -0.41432   0.19752   0.07965   0.88855   -0.41432   0.19752   102.22778
1341   0.07975   0.88821   -0.41484   0.19788   0.07975   0.88821   -0.41484   0.19788   102.14539
1342   0.07974   0.88778   -0.41542   0.19858   0.07974   0.88778   -0.41542   0.19858   102.19116
1343   0.07967   0.88830   -0.41493   0.19767   0.07967   0.88830   -0.41493   0.19767   102.29797
1344   0.07970   0.88839   -0.41450   0.19810   0.07970   0.88839   -0.41450   0.19810   102.26135
1345   0.07980   0.88845   -0.41380   0.19877   0.07980   0.88845   -0.41380   0.19877   102.12097
1346   0.07974   0.88842   -0.41432   0.19794   0.07974   0.88842   -0.41432   0.19794   102.22473
1347   0.07968   0.88852   -0.41404   0.19819   0.07968   0.88852   -0.41404   0.19819   102.27356
1348   0.07974   0.88867   -0.41408   0.19797   0.07974   0.88867   -0.41408   0.19797   102.21558
1349   0.07977   0.88870   -0.41337   0.19919   0.07977   0.88870   -0.41337   0.19919   102.12097
1350   0.07968   0.88836   -0.41453   0.19758   0.07968   0.88836   -0.41453   0.19758   102.18201
1351   0.07957   0.88861   -0.41374   0.19858   0.07957   0.88861   -0.41374   0.19858   102.26440
1352   0.07969   0.88833   -0.41429   0.19861   0.07969   0.88833   -0.41429   0.19861   102.20337
1353   0.07969   0.88833   -0.41490   0.19791   0.07969   0.88833   -0.41490   0.19791   102.15759
1354   0.07968   0.88842   -0.41453   0.19758   0.07968   0.88842   -0.41453   0.19758   102.24915
1355   0.07966   0.88867   -0.41374   0.19849   0.07966   0.88867   -0.41374   0.19849   102.23999
1356   0.07977   0.88836   -0.41441   0.19831   0.07977   0.88836   -0.41441   0.19831   102.19116
1357   0.07972   0.88836   -0.41462   0.19764   0.07972   0.88836   -0.41462   0.19764   102.20337
1358   0.07959   0.88812   -0.41517   0.19807   0.07959   0.88812   -0.41517   0.19807   102.21863
1359   0.07957   0.88879   -0.41359   0.19843   0.07957   0.88879   -0.41359   0.19843   102.21863
1360   0.07979   0.88867   -0.41353   0.19904   0.07979   0.88867   -0.41353   0.19904   102.15454
1361   0.07983   0.88864   -0.41414   0.19773   0.07983   0.88864   -0.41414   0.19773   102.21252
1362   0.07971   0.88861   -0.41377   0.19846   0.07971   0.88861   -0.41377   0.19846   102.23694
1363   0.07969   0.88903   -0.41316   0.19770   0.07969   0.88903   -0.41316   0.19770   102.13623
1364   0.07966   0.88885   -0.41368   0.19776   0.07966   0.88885   -0.41368   0.19776   102.16980
1365   0.07970   0.88867   -0.41377   0.19803   0.07970   0.88867   -0.41377   0.19803   102.20337
1366   0.07969   0.88821   -0.41459   0.19861   0.07969   0.88821   -0.41459   0.19861   102.20337
1367   0.07978   0.88827   -0.41411   0.19926   0.07978   0.88827   -0.41411   0.19926   102.16675
1368   0.07977   0.88845   -0.41408   0.19883   0.07977   0.88845   -0.41408   0.19883   102.17896
1369   0.07969   0.88839   -0.41417   0.19822   0.07969   0.88839   -0.41417   0.19822   102.28577
1370   0.07979   0.88852   -0.41456   0.19718   0.07979   0.88852   -0.41456   0.19718   102.19116
1371   0.07980   0.88842   -0.41414   0.19843   0.07980   0.88842   -0.41414   0.19843   102.16675
1372   0.07974   0.88809   -0.41481   0.19825   0.07974   0.88809   -0.41481   0.19825   102.26135
1373   0.07971   0.88852   -0.41417   0.19791   0.07971   0.88852   -0.41417   0.19791   102.28577
1374   0.07972   0.88858   -0.41423   0.19767   0.07972   0.88858   -0.41423   0.19767   102.19116
1375   0.07972   0.88861   -0.41395   0.19758   0.07972   0.88861   -0.41395   0.19758   102.13318
1376   0.07966   0.88885   -0.41337   0.19819   0.07966   0.88885   -0.41337   0.19819   102.25220
1377   0.07966   0.88879   -0.41362   0.19816   0.07966   0.88879   -0.41362   0.19816   102.26135
1378   0.07978   0.88913   -0.41307   0.19779   0.07978   0.88913   -0.41307   0.19779   102.17896
1379   0.07979   0.88943   -0.41227   0.19797   0.07979   0.88943   -0.41227   0.19797   102.12097
1380   0.07953   0.88937   -0.41160   0.19996   0.07953   0.88937   -0.41160   0.19996   102.20947
1381   0.07963   0.88919   -0.41288   0.19785   0.07963   0.88919   -0.41288   0.19785   102.25220
1382   0.07982   0.88849   -0.41456   0.19776   0.07982   0.88849   -0.41456   0.19776   102.15454
1383   0.07984   0.88791   -0.41527   0.19855   0.07984   0.88791   -0.41527   0.19855   102.20032
1384   0.07970   0.88800   -0.41545   0.19813   0.07970   0.88800   -0.41545   0.19813   102.24915
1385   0.07967   0.88815   -0.41502   0.19819   0.07967   0.88815   -0.41502   0.19819   102.22778
1386   0.07979   0.88797   -0.41496   0.19880   0.07979   0.88797   -0.41496   0.19880   102.17896
1387   0.07977   0.88797   -0.41530   0.19785   0.07977   0.88797   -0.41530   0.19785   102.21252
1388   0.07967   0.88788   -0.41548   0.19825   0.07967   0.88788   -0.41548   0.19825   102.23999
1389   0.07971   0.88803   -0.41493   0.19864   0.07971   0.88803   -0.41493   0.19864   102.21558
1390   0.07969   0.88833   -0.41472   0.19779   0.07969   0.88833   -0.41472   0.19779   102.18201
1391   0.07964   0.88855   -0.41429   0.19803   0.07964   0.88855   -0.41429   0.19803   102.22778
1392   0.07960   0.88794   -0.41588   0.19767   0.07960   0.88794   -0.41588   0.19767   102.23083
1393   0.07976   0.88809   -0.41545   0.19733   0.07976   0.88809   -0.41545   0.19733   102.16675
1394   0.07978   0.88876   -0.41453   0.19581   0.07978   0.88876   -0.41453   0.19581   102.19116
1395   0.07960   0.88800   -0.41585   0.19694   0.07960   0.88800   -0.41585   0.19694   102.23083
1396   0.07941   0.88836   -0.41432   0.19834   0.07941   0.88836   -0.41432   0.19834   102.22473
1397   0.07969   0.88818   -0.41465   0.19864   0.07969   0.88818   -0.41465   0.19864   102.19421
1398   0.07973   0.88791   -0.41572   0.19788   0.07973   0.88791   -0.41572   0.19788   102.23694
1399   0.07965   0.88827   -0.41508   0.19791   0.07965   0.88827   -0.41508   0.19791   102.25220
1400   0.07960   0.88815   -0.41484   0.19797   0.07960   0.88815   -0.41484   0.19797   102.20642
1401   0.07969   0.88870   -0.41395   0.19807   0.07969   0.88870   -0.41395   0.19807   102.18201
1402   0.07972   0.88833   -0.41453   0.19846   0.07972   0.88833   -0.41453   0.19846   102.24915
1403   0.07965   0.88833   -0.41450   0.19834   0.07965   0.88833   -0.41450   0.19834   102.25220
1404   0.07968   0.88842   -0.41414   0.19889   0.07968   0.88842   -0.41414   0.19889   102.13623
1405   0.07962   0.88836   -0.41475   0.19742   0.07962   0.88836   -0.41475   0.19742   102.20642
1406   0.07956   0.88864   -0.41404   0.19813   0.07956   0.88864   -0.41404   0.19813   102.30103
1407   0.07965   0.88867   -0.41420   0.19776   0.07965   0.88867   -0.41420   0.19776   102.20642
1408   0.07969   0.88897   -0.41261   0.19926   0.07969   0.88897   -0.41261   0.19926   102.15759
1409   0.07967   0.88842   -0.41389   0.19868   0.07967   0.88842   -0.41389   0.19868   102.23999
1410   0.07962   0.88876   -0.41386   0.19785   0.07962   0.88876   -0.41386   0.19785   102.27661
1411   0.07973   0.88864   -0.41432   0.19736   0.07973   0.88864   -0.41432   0.19736   102.19116
1412   0.07974   0.88852   -0.41395   0.19831   0.07974   0.88852   -0.41395   0.19831   102.15759
1413   0.07976   0.88845   -0.41447   0.19758   0.07976   0.88845   -0.41447   0.19758   102.21558
1414   0.07967   0.88845   -0.41432   0.19807   0.07967   0.88845   -0.41432   0.19807   102.26135
1415   0.07973   0.88861   -0.41417   0.19803   0.07973   0.88861   -0.41417   0.19803   102.17896
1416   0.07979   0.88821   -0.41490   0.19794   0.07979   0.88821   -0.41490   0.19794   102.15454
1417   0.07970   0.88852   -0.41441   0.19755   0.07970   0.88852   -0.41441   0.19755   102.24915
1418   0.07963   0.88815   -0.41459   0.19886   0.07963   0.88815   -0.41459   0.19886   102.20642
1419   0.07964   0.88821   -0.41459   0.19843   0.07964   0.88821   -0.41459   0.19843   102.14844
1420   0.07968   0.88830   -0.41459   0.19840   0.07968   0.88830   -0.41459   0.19840   102.15759
1421   0.07965   0.88800   -0.41572   0.19742   0.07965   0.88800   -0.41572   0.19742   102.25220
1422   0.07969   0.88903   -0.41322   0.19776   0.07969   0.88903   -0.41322   0.19776   102.20337
1423   0.07970   0.88842   -0.41408   0.19840   0.07970   0.88842   -0.41408   0.19840   102.19116
1424   0.07968   0.88812   -0.41527   0.19788   0.07968   0.88812   -0.41527   0.19788   102.18201
1425   0.07970   0.88882   -0.41337   0.19861   0.07970   0.88882   -0.41337   0.19861   102.23999
1426   0.07973   0.88849   -0.41380   0.19889   0.07973   0.88849   -0.41380   0.19889   102.16980
1427   0.07976   0.88803   -0.41523   0.19822   0.07976   0.88803   -0.41523   0.19822   102.22473
1428   0.07974   0.88800   -0.41530   0.19794   0.07974   0.88800   -0.41530   0.19794   102.23694
1429   0.07973   0.88845   -0.41444   0.19794   0.07973   0.88845   -0.41444   0.19794   102.23694
1430   0.07975   0.88809   -0.41469   0.19868   0.07975   0.88809   -0.41469   0.19868   102.20337
1431   0.07972   0.88873   -0.41423   0.19727   0.07972   0.88873   -0.41423   0.19727   102.20337
1432   0.07964   0.88852   -0.41432   0.19758   0.07964   0.88852   -0.41432   0.19758   102.25220
1433   0.07966   0.88827   -0.41517   0.19739   0.07966   0.88827   -0.41517   0.19739   102.19421
1434   0.07972   0.88797   -0.41527   0.19813   0.07972   0.88797   -0.41527   0.19813   102.16980
1435   0.07964   0.88879   -0.41386   0.19779   0.07964   0.88879   -0.41386   0.19779   102.23999
1436   0.07964   0.88867   -0.41414   0.19752   0.07964   0.88867   -0.41414   0.19752   102.28577
1437   0.07971   0.88888   -0.41337   0.19828   0.07971   0.88888   -0.41337   0.19828   102.16980
1438   0.07974   0.88809   -0.41514   0.19788   0.07974   0.88809   -0.41514   0.19788   102.15759
1439   0.07964   0.88858   -0.41417   0.19822   0.07964   0.88858   -0.41417   0.19822   102.26440
1440   0.07967   0.88827   -0.41447   0.19849   0.07967   0.88827   -0.41447   0.19849   102.26135
1441   0.07983   0.88821   -0.41472   0.19813   0.07983   0.88821   -0.41472   0.19813   102.13318
1442   0.07977   0.88888   -0.41383   0.19745   0.07977   0.88888   -0.41383   0.19745   102.17896
1443   0.07970   0.88876   -0.41377   0.19794   0.07970   0.88876   -0.41377   0.19794   102.26135
1444   0.07971   0.88864   -0.41462   0.19691   0.07971   0.88864   -0.41462   0.19691   102.23694
1445   0.07975   0.88845   -0.41401   0.19852   0.07975   0.88845   -0.41401   0.19852   102.14539
1446   0.07966   0.88852   -0.41380   0.19858   0.07966   0.88852   -0.41380   0.19858   102.20642
1447   0.07960   0.88858   -0.41441   0.19788   0.07960   0.88858   -0.41441   0.19788   102.27661
1448   0.07967   0.88815   -0.41469   0.19846   0.07967   0.88815   -0.41469   0.19846   102.23999
1449   0.07972   0.88812   -0.41490   0.19797   0.07972   0.88812   -0.41490   0.19797   102.18201
1450   0.07968   0.88760   -0.41633   0.19742   0.07968   0.88760   -0.41633   0.19742   102.24915
1451   0.07967   0.88830   -0.41514   0.19739   0.07967   0.88830   -0.41514   0.19739   102.28577
1452   0.07974   0.88800   -0.41533   0.19813   0.07974   0.88800   -0.41533   0.19813   102.20337
1453   0.07975   0.88830   -0.41505   0.19761   0.07975   0.88830   -0.41505   0.19761   102.15759
1454   0.07971   0.88827   -0.41432   0.19837   0.07971   0.88827   -0.41432   0.19837   102.26135
1455   0.07975   0.88821   -0.41469   0.19846   0.07975   0.88821   -0.41469   0.19846   102.21558
1456   0.07975   0.88842   -0.41362   0.19938   0.07975   0.88842   -0.41362   0.19938   102.21558
1457   0.07977   0.88821   -0.41417   0.19929   0.07977   0.88821   -0.41417   0.19929   102.21252
1458   0.07974   0.88849   -0.41401   0.19910   0.07974   0.88849   -0.41401   0.19910   102.22473
1459   0.07980   0.88873   -0.41322   0.19910   0.07980   0.88873   -0.41322   0.19910   102.20032
1460   0.07967   0.88931   -0.41279   0.19758   0.07967   0.88931   -0.41279   0.19758   102.18201
1461   0.07958   0.88955   -0.41285   0.19611   0.07958   0.88955   -0.41285   0.19611   102.19727
1462   0.07964   0.88885   -0.41362   0.19794   0.07964   0.88885   -0.41362   0.19794   102.22778
1463   0.07972   0.88833   -0.41411   0.19895   0.07972   0.88833   -0.41411   0.19895   102.19116
1464   0.07970   0.88876   -0.41353   0.19849   0.07970   0.88876   -0.41353   0.19849   102.16980
1465   0.07963   0.88852   -0.41374   0.19901   0.07963   0.88852   -0.41374   0.19901   102.26440
1466   0.07968   0.88845   -0.41417   0.19816   0.07968   0.88845   -0.41417   0.19816   102.23999
1467   0.07976   0.88876   -0.41310   0.19929   0.07976   0.88876   -0.41310   0.19929   102.15759
1468   0.07970   0.88824   -0.41456   0.19843   0.07970   0.88824   -0.41456   0.19843   102.22778
1469   0.07967   0.88900   -0.41319   0.19785   0.07967   0.88900   -0.41319   0.19785   102.26135
1470   0.07975   0.88940   -0.41227   0.19825   0.07975   0.88940   -0.41227   0.19825   102.17896
1471   0.07978   0.88907   -0.41261   0.19883   0.07978   0.88907   -0.41261   0.19883   102.16675
1472   0.07968   0.88842   -0.41404   0.19843   0.07968   0.88842   -0.41404   0.19843   102.23999
1473   0.07960   0.88885   -0.41340   0.19846   0.07960   0.88885   -0.41340   0.19846   102.27661
1474   0.07962   0.88879   -0.41359   0.19843   0.07962   0.88879   -0.41359   0.19843   102.16064
1475   0.07973   0.88855   -0.41432   0.19794   0.07973   0.88855   -0.41432   0.19794   102.12402
1476   0.07963   0.88882   -0.41350   0.19785   0.07963   0.88882   -0.41350   0.19785   102.25220
1477   0.07954   0.88891   -0.41365   0.19755   0.07954   0.88891   -0.41365   0.19755   102.26746
1478   0.07945   0.88861   -0.41389   0.19779   0.07945   0.88861   -0.41389   0.19779   102.17590
1479   0.07965   0.88861   -0.41414   0.19761   0.07965   0.88861   -0.41414   0.19761   102.19421
1480   0.07975   0.88858   -0.41408   0.19779   0.07975   0.88858   -0.41408   0.19779   102.27051
1481   0.07970   0.88882   -0.41374   0.19770   0.07970   0.88882   -0.41374   0.19770   102.23999
1482   0.07970   0.88824   -0.41469   0.19782   0.07970   0.88824   -0.41469   0.19782   102.14539
1483   0.07967   0.88845   -0.41438   0.19800   0.07967   0.88845   -0.41438   0.19800   102.19421
1484   0.07969   0.88903   -0.41279   0.19825   0.07969   0.88903   -0.41279   0.19825   102.26135
1485   0.07971   0.88830   -0.41465   0.19828   0.07971   0.88830   -0.41465   0.19828   102.22778
1486   0.07966   0.88882   -0.41429   0.19657   0.07966   0.88882   -0.41429   0.19657   102.16064
1487   0.07961   0.88870   -0.41420   0.19745   0.07961   0.88870   -0.41420   0.19745   102.20642
1488   0.07957   0.88897   -0.41325   0.19788   0.07957   0.88897   -0.41325   0.19788   102.24304
1489   0.07969   0.88864   -0.41316   0.19938   0.07969   0.88864   -0.41316   0.19938   102.16980
1490   0.07966   0.88864   -0.41383   0.19840   0.07966   0.88864   -0.41383   0.19840   102.19421
1491   0.07964   0.88873   -0.41374   0.19776   0.07964   0.88873   -0.41374   0.19776   102.26440
1492   0.07964   0.88849   -0.41365   0.19926   0.07964   0.88849   -0.41365   0.19926   102.22778
1493   0.07969   0.88858   -0.41404   0.19834   0.07969   0.88858   -0.41404   0.19834   102.19421
1494   0.07981   0.88882   -0.41380   0.19709   0.07981   0.88882   -0.41380   0.19709   102.22473
1495   0.07975   0.88873   -0.41411   0.19761   0.07975   0.88873   -0.41411   0.19761   102.24915
1496   0.07978   0.88830   -0.41441   0.19864   0.07978   0.88830   -0.41441   0.19864   102.17896
1497   0.07974   0.88891   -0.41371   0.19706   0.07974   0.88891   -0.41371   0.19706   102.17896
1498   0.07969   0.88864   -0.41465   0.19684   0.07969   0.88864   -0.41465   0.19684   102.23999
1499   0.07972   0.88818   -0.41469   0.19874   0.07972   0.88818   -0.41469   0.19874   102.24915
1500   0.07979   0.88885   -0.41319   0.19877   0.07979   0.88885   -0.41319   0.19877   102.13318
1501   0.07966   0.88885   -0.41331   0.19828   0.07966   0.88885   -0.41331   0.19828   102.18201
1502   0.07961   0.88852   -0.41472   0.19703   0.07961   0.88852   -0.41472   0.19703   102.26440
1503   0.07967   0.88806   -0.41493   0.19837   0.07967   0.88806   -0.41493   0.19837   102.26135
1504   0.07974   0.88876   -0.41356   0.19819   0.07974   0.88876   -0.41356   0.19819   102.14539
1505   0.07970   0.88885   -0.41325   0.19840   0.07970   0.88885   -0.41325   0.19840   102.18201
1506   0.07962   0.88842   -0.41420   0.19834   0.07962   0.88842   -0.41420   0.19834   102.28577
1507   0.07968   0.88836   -0.41386   0.19935   0.07968   0.88836   -0.41386   0.19935   102.26135
1508   0.07979   0.88836   -0.41459   0.19761   0.07979   0.88836   -0.41459   0.19761   102.14539
1509   0.07972   0.88879   -0.41374   0.19803   0.07972   0.88879   -0.41374   0.19803   102.22778
1510   0.07969   0.88775   -0.41588   0.19755   0.07969   0.88775   -0.41588   0.19755   102.30713
1511   0.07972   0.88845   -0.41420   0.19791   0.07972   0.88845   -0.41420   0.19791   102.20337
1512   0.07978   0.88852   -0.41386   0.19877   0.07978   0.88852   -0.41386   0.19877   102.15454
1513   0.07971   0.88818   -0.41536   0.19721   0.07971   0.88818   -0.41536   0.19721   102.21558
1514   0.07965   0.88818   -0.41481   0.19816   0.07965   0.88818   -0.41481   0.19816   102.27356
1515   0.07963   0.88812   -0.41469   0.19871   0.07963   0.88812   -0.41469   0.19871   102.17285
1516   0.07968   0.88836   -0.41398   0.19932   0.07968   0.88836   -0.41398   0.19932   102.13623
1517   0.07963   0.88827   -0.41496   0.19767   0.07963   0.88827   -0.41496   0.19767   102.23999
1518   0.07965   0.88833   -0.41453   0.19800   0.07965   0.88833   -0.41453   0.19800   102.22778
1519   0.07970   0.88812   -0.41459   0.19880   0.07970   0.88812   -0.41459   0.19880   102.16980
1520   0.07970   0.88800   -0.41505   0.19819   0.07970   0.88800   -0.41505   0.19819   102.19116
1521   0.07965   0.88803   -0.41511   0.19871   0.07965   0.88803   -0.41511   0.19871   102.26440
1522   0.07971   0.88821   -0.41496   0.19788   0.07971   0.88821   -0.41496   0.19788   102.19116
1523   0.07972   0.88769   -0.41548   0.19901   0.07972   0.88769   -0.41548   0.19901   102.20337
1524   0.07967   0.88806   -0.41508   0.19813   0.07967   0.88806   -0.41508   0.19813   102.27356
1525   0.07969   0.88794   -0.41542   0.19834   0.07969   0.88794   -0.41542   0.19834   102.21558
1526   0.07975   0.88809   -0.41523   0.19800   0.07975   0.88809   -0.41523   0.19800   102.17896
1527   0.07970   0.88781   -0.41572   0.19819   0.07970   0.88781   -0.41572   0.19819   102.20337
1528   0.07961   0.88748   -0.41633   0.19803   0.07961   0.88748   -0.41633   0.19803   102.27661
1529   0.07964   0.88800   -0.41496   0.19837   0.07964   0.88800   -0.41496   0.19837   102.19421
1530   0.07971   0.88821   -0.41447   0.19840   0.07971   0.88821   -0.41447   0.19840   102.19116
1531   0.07960   0.88873   -0.41481   0.19590   0.07960   0.88873   -0.41481   0.19590   102.18506
1532   0.07962   0.88775   -0.41618   0.19736   0.07962   0.88775   -0.41618   0.19736   102.27661
1533   0.07970   0.88809   -0.41545   0.19749   0.07970   0.88809   -0.41545   0.19749   102.19116
1534   0.07973   0.88754   -0.41655   0.19752   0.07973   0.88754   -0.41655   0.19752   102.19116
1535   0.07969   0.88806   -0.41575   0.19703   0.07969   0.88806   -0.41575   0.19703   102.27356
1536   0.07967   0.88803   -0.41566   0.19697   0.07967   0.88803   -0.41566   0.19697   102.27356
1537   0.07977   0.88852   -0.41447   0.19788   0.07977   0.88852   -0.41447   0.19788   102.13318
1538   0.07972   0.88861   -0.41417   0.19764   0.07972   0.88861   -0.41417   0.19764   102.20337
1539   0.07970   0.88830   -0.41517   0.19678   0.07970   0.88830   -0.41517   0.19678   102.27356
1540   0.07968   0.88791   -0.41578   0.19721   0.07968   0.88791   -0.41578   0.19721   102.24915
1541   0.07974   0.88845   -0.41438   0.19773   0.07974   0.88845   -0.41438   0.19773   102.15759
1542   0.07967   0.88788   -0.41588   0.19752   0.07967   0.88788   -0.41588   0.19752   102.20337
1543   0.07955   0.88833   -0.41490   0.19764   0.07955   0.88833   -0.41490   0.19764   102.30103
1544   0.07967   0.88812   -0.41542   0.19721   0.07967   0.88812   -0.41542   0.19721   102.25220
1545   0.07972   0.88818   -0.41523   0.19758   0.07972   0.88818   -0.41523   0.19758   102.14539
1546   0.07968   0.88836   -0.41469   0.19758   0.07968   0.88836   -0.41469   0.19758   102.18201
1547   0.07964   0.88855   -0.41408   0.19816   0.07964   0.88855   -0.41408   0.19816   102.28577
1548   0.07970   0.88809   -0.41493   0.19831   0.07970   0.88809   -0.41493   0.19831   102.21558
1549   0.07975   0.88769   -0.41603   0.19810   0.07975   0.88769   -0.41603   0.19810   102.15759
1550   0.07968   0.88845   -0.41417   0.19800   0.07968   0.88845   -0.41417   0.19800   102.23999
1551   0.07968   0.88788   -0.41545   0.19791   0.07968   0.88788   -0.41545   0.19791   102.26135
1552   0.07976   0.88818   -0.41453   0.19855   0.07976   0.88818   -0.41453   0.19855   102.23694
1553   0.07978   0.88788   -0.41554   0.19813   0.07978   0.88788   -0.41554   0.19813   102.21252
1554   0.07969   0.88763   -0.41606   0.19807   0.07969   0.88763   -0.41606   0.19807   102.24915
1555   0.07967   0.88815   -0.41499   0.19785   0.07967   0.88815   -0.41499   0.19785   102.26135
1556   0.07966   0.88830   -0.41478   0.19779   0.07966   0.88830   -0.41478   0.19779   102.20642
1557   0.07966   0.88812   -0.41551   0.19712   0.07966   0.88812   -0.41551   0.19712   102.18201
1558   0.07952   0.88784   -0.41569   0.19791   0.07952   0.88784   -0.41569   0.19791   102.25525
1559   0.07952   0.88818   -0.41456   0.19898   0.07952   0.88818   -0.41456   0.19898   102.15149
1560   0.07968   0.88855   -0.41423   0.19779   0.07968   0.88855   -0.41423   0.19779   102.23999
1561   0.07974   0.88800   -0.41563   0.19767   0.07974   0.88800   -0.41563   0.19767   102.22473
1562   0.07973   0.88888   -0.41386   0.19727   0.07973   0.88888   -0.41386   0.19727   102.20337
1563   0.07971   0.88803   -0.41523   0.19773   0.07971   0.88803   -0.41523   0.19773   102.15759
1564   0.07971   0.88781   -0.41551   0.19794   0.07971   0.88781   -0.41551   0.19794   102.26135
1565   0.07972   0.88797   -0.41545   0.19776   0.07972   0.88797   -0.41545   0.19776   102.28271
1566   0.07979   0.88839   -0.41472   0.19755   0.07979   0.88839   -0.41472   0.19755   102.17896
1567   0.07986   0.88775   -0.41618   0.19752   0.07986   0.88775   -0.41618   0.19752   102.15454
1568   0.07970   0.88778   -0.41569   0.19819   0.07970   0.88778   -0.41569   0.19819   102.24915
1569   0.07958   0.88757   -0.41639   0.19782   0.07958   0.88757   -0.41639   0.19782   102.31018
1570   0.07966   0.88702   -0.41685   0.19922   0.07966   0.88702   -0.41685   0.19922   102.16980
1571   0.07975   0.88739   -0.41658   0.19819   0.07975   0.88739   -0.41658   0.19819   102.15759
1572   0.07961   0.88726   -0.41722   0.19727   0.07961   0.88726   -0.41722   0.19727   102.29797
1573   0.07965   0.88812   -0.41581   0.19639   0.07965   0.88812   -0.41581   0.19639   102.26440
1574   0.07970   0.88797   -0.41566   0.19736   0.07970   0.88797   -0.41566   0.19736   102.15759
1575   0.07964   0.88778   -0.41621   0.19712   0.07964   0.88778   -0.41621   0.19712   102.21863
1576   0.07966   0.88769   -0.41585   0.19776   0.07966   0.88769   -0.41585   0.19776   102.31018
1577   0.07966   0.88745   -0.41627   0.19800   0.07966   0.88745   -0.41627   0.19800   102.28577
1578   0.07989   0.88736   -0.41652   0.19849   0.07989   0.88736   -0.41652   0.19849   102.17590
1579   0.07974   0.88794   -0.41612   0.19623   0.07974   0.88794   -0.41612   0.19623   102.21558
1580   0.07962   0.88784   -0.41609   0.19730   0.07962   0.88784   -0.41609   0.19730   102.27661
1581   0.07968   0.88736   -0.41710   0.19724   0.07968   0.88736   -0.41710   0.19724   102.22778
1582   0.07979   0.88794   -0.41533   0.19834   0.07979   0.88794   -0.41533   0.19834   102.19116
1583   0.07968   0.88778   -0.41664   0.19630   0.07968   0.88778   -0.41664   0.19630   102.23999
1584   0.07954   0.88769   -0.41673   0.19630   0.07954   0.88769   -0.41673   0.19630   102.28882
1585   0.07963   0.88720   -0.41746   0.19694   0.07963   0.88720   -0.41746   0.19694   102.16064
1586   0.07965   0.88736   -0.41716   0.19678   0.07965   0.88736   -0.41716   0.19678   102.25220
1587   0.07969   0.88775   -0.41633   0.19691   0.07969   0.88775   -0.41633   0.19691   102.24915
1588   0.07968   0.88760   -0.41575   0.19883   0.07968   0.88760   -0.41575   0.19883   102.23999
1589   0.07973   0.88705   -0.41740   0.19770   0.07973   0.88705   -0.41740   0.19770   102.21558
1590   0.07971   0.88815   -0.41542   0.19709   0.07971   0.88815   -0.41542   0.19709   102.20337
1591   0.07969   0.88723   -0.41704   0.19749   0.07969   0.88723   -0.41704   0.19749   102.26135
1592   0.07978   0.88794   -0.41533   0.19819   0.07978   0.88794   -0.41533   0.19819   102.21252
1593   0.07981   0.88778   -0.41551   0.19840   0.07981   0.88778   -0.41551   0.19840   102.17896
1594   0.07981   0.88797   -0.41624   0.19626   0.07981   0.88797   -0.41624   0.19626   102.28271
1595   0.07962   0.88769   -0.41630   0.19739   0.07962   0.88769   -0.41630   0.19739   102.25220
1596   0.07951   0.88763   -0.41581   0.19877   0.07951   0.88763   -0.41581   0.19877   102.20947
1597   0.07960   0.88760   -0.41572   0.19886   0.07960   0.88760   -0.41572   0.19886   102.20642
1598   0.07966   0.88763   -0.41618   0.19822   0.07966   0.88763   -0.41618   0.19822   102.29797
1599   0.07958   0.88809   -0.41578   0.19630   0.07958   0.88809   -0.41578   0.19630   102.25220
1600   0.07962   0.88781   -0.41597   0.19761   0.07962   0.88781   -0.41597   0.19761   102.13623
1601   0.07965   0.88784   -0.41575   0.19822   0.07965   0.88784   -0.41575   0.19822   102.19421
1602   0.07966   0.88766   -0.41649   0.19733   0.07966   0.88766   -0.41649   0.19733   102.31934
1603   0.07968   0.88711   -0.41704   0.19846   0.07968   0.88711   -0.41704   0.19846   102.19421
1604   0.07973   0.88751   -0.41615   0.19831   0.07973   0.88751   -0.41615   0.19831   102.13318
1605   0.07972   0.88751   -0.41597   0.19868   0.07972   0.88751   -0.41597   0.19868   102.24915
1606   0.07965   0.88745   -0.41661   0.19742   0.07965   0.88745   -0.41661   0.19742   102.29797
1607   0.07972   0.88760   -0.41627   0.19800   0.07972   0.88760   -0.41627   0.19800   102.21558
1608   0.07978   0.88726   -0.41682   0.19813   0.07978   0.88726   -0.41682   0.19813   102.15759
1609   0.07967   0.88766   -0.41575   0.19825   0.07967   0.88766   -0.41575   0.19825   102.25220
1610   0.07962   0.88730   -0.41685   0.19825   0.07962   0.88730   -0.41685   0.19825   102.26440
1611   0.07963   0.88775   -0.41542   0.19852   0.07963   0.88775   -0.41542   0.19852   102.20642
1612   0.07970   0.88711   -0.41725   0.19834   0.07970   0.88711   -0.41725   0.19834   102.15759
1613   0.07960   0.88730   -0.41685   0.19785   0.07960   0.88730   -0.41685   0.19785   102.29797
1614   0.07962   0.88748   -0.41649   0.19788   0.07962   0.88748   -0.41649   0.19788   102.26440
1615   0.07973   0.88723   -0.41670   0.19855   0.07973   0.88723   -0.41670   0.19855   102.16980
1616   0.07967   0.88736   -0.41737   0.19636   0.07967   0.88736   -0.41737   0.19636   102.20337
1617   0.07960   0.88757   -0.41685   0.19663   0.07960   0.88757   -0.41685   0.19663   102.23999
1618   0.07967   0.88733   -0.41716   0.19752   0.07967   0.88733   -0.41716   0.19752   102.21558
1619   0.07970   0.88760   -0.41633   0.19767   0.07970   0.88760   -0.41633   0.19767   102.21558
1620   0.07972   0.88705   -0.41737   0.19767   0.07972   0.88705   -0.41737   0.19767   102.26135
1621   0.07970   0.88766   -0.41658   0.19718   0.07970   0.88766   -0.41658   0.19718   102.24915
1622   0.07973   0.88723   -0.41704   0.19773   0.07973   0.88723   -0.41704   0.19773   102.20337
1623   0.07970   0.88760   -0.41667   0.19718   0.07970   0.88760   -0.41667   0.19718   102.21558
1624   0.07958   0.88742   -0.41737   0.19575   0.07958   0.88742   -0.41737   0.19575   102.27661
1625   0.07955   0.88763   -0.41722   0.19581   0.07955   0.88763   -0.41722   0.19581   102.20947
1626   0.07966   0.88751   -0.41597   0.19886   0.07966   0.88751   -0.41597   0.19886   102.19421
1627   0.07962   0.88736   -0.41679   0.19794   0.07962   0.88736   -0.41679   0.19794   102.27661
1628   0.07961   0.88733   -0.41697   0.19797   0.07961   0.88733   -0.41697   0.19797   102.27661
1629   0.07972   0.88760   -0.41621   0.19758   0.07972   0.88760   -0.41621   0.19758   102.15759
1630   0.07974   0.88772   -0.41633   0.19745   0.07974   0.88772   -0.41633   0.19745   102.17896
1631   0.07966   0.88745   -0.41649   0.19794   0.07966   0.88745   -0.41649   0.19794   102.26135
1632   0.07967   0.88705   -0.41810   0.19678   0.07967   0.88705   -0.41810   0.19678   102.27356
1633   0.07976   0.88754   -0.41569   0.19929   0.07976   0.88754   -0.41569   0.19929   102.13318
1634   0.07976   0.88675   -0.41804   0.19797   0.07976   0.88675   -0.41804   0.19797   102.20337
1635   0.07968   0.88760   -0.41700   0.19648   0.07968   0.88760   -0.41700   0.19648   102.27356
1636   0.07963   0.88736   -0.41707   0.19773   0.07963   0.88736   -0.41707   0.19773   102.27661
1637   0.07973   0.88745   -0.41688   0.19752   0.07973   0.88745   -0.41688   0.19752   102.14539
1638   0.07966   0.88696   -0.41755   0.19776   0.07966   0.88696   -0.41755   0.19776   102.25220
1639   0.07954   0.88708   -0.41731   0.19742   0.07954   0.88708   -0.41731   0.19742   102.32239
1640   0.07964   0.88714   -0.41722   0.19797   0.07964   0.88714   -0.41722   0.19797   102.22778
1641   0.07971   0.88708   -0.41731   0.19782   0.07971   0.88708   -0.41731   0.19782   102.14539
1642   0.07970   0.88745   -0.41697   0.19709   0.07970   0.88745   -0.41697   0.19709   102.22778
1643   0.07966   0.88772   -0.41633   0.19691   0.07966   0.88772   -0.41633   0.19691   102.29797
1644   0.07973   0.88751   -0.41621   0.19837   0.07973   0.88751   -0.41621   0.19837   102.20337
1645   0.07974   0.88726   -0.41685   0.19776   0.07974   0.88726   -0.41685   0.19776   102.21558
1646   0.07968   0.88726   -0.41792   0.19572   0.07968   0.88726   -0.41792   0.19572   102.24915
1647   0.07968   0.88760   -0.41630   0.19767   0.07968   0.88760   -0.41630   0.19767   102.23999
1648   0.07971   0.88739   -0.41691   0.19739   0.07971   0.88739   -0.41691   0.19739   102.20337
1649   0.07976   0.88711   -0.41765   0.19666   0.07976   0.88711   -0.41765   0.19666   102.26135
1650   0.07971   0.88708   -0.41771   0.19691   0.07971   0.88708   -0.41771   0.19691   102.24915
1651   0.07967   0.88687   -0.41801   0.19749   0.07967   0.88687   -0.41801   0.19749   102.22778
1652   0.07967   0.88742   -0.41691   0.19770   0.07967   0.88742   -0.41691   0.19770   102.18201
1653   0.07967   0.88754   -0.41713   0.19636   0.07967   0.88754   -0.41713   0.19636   102.21558
1654   0.07965   0.88717   -0.41765   0.19687   0.07965   0.88717   -0.41765   0.19687   102.29797
1655   0.07970   0.88723   -0.41691   0.19800   0.07970   0.88723   -0.41691   0.19800   102.19116
1656   0.07972   0.88693   -0.41792   0.19715   0.07972   0.88693   -0.41792   0.19715   102.21558
1657   0.07964   0.88723   -0.41820   0.19517   0.07964   0.88723   -0.41820   0.19517   102.28577
1658   0.07969   0.88751   -0.41728   0.19611   0.07969   0.88751   -0.41728   0.19611   102.24915
1659   0.07979   0.88690   -0.41856   0.19626   0.07979   0.88690   -0.41856   0.19626   102.20032
1660   0.07972   0.88742   -0.41758   0.19614   0.07972   0.88742   -0.41758   0.19614   102.21558
1661   0.07966   0.88769   -0.41639   0.19694   0.07966   0.88769   -0.41639   0.19694   102.28577
1662   0.07975   0.88650   -0.41865   0.19761   0.07975   0.88650   -0.41865   0.19761   102.22473
1663   0.07979   0.88714   -0.41725   0.19800   0.07979   0.88714   -0.41725   0.19800   102.17896
1664   0.07971   0.88757   -0.41630   0.19755   0.07971   0.88757   -0.41630   0.19755   102.24915
1665   0.07960   0.88723   -0.41786   0.19608   0.07960   0.88723   -0.41786   0.19608   102.28882
1666   0.07962   0.88730   -0.41737   0.19718   0.07962   0.88730   -0.41737   0.19718   102.14844
1667   0.07976   0.88723   -0.41765   0.19654   0.07976   0.88723   -0.41765   0.19654   102.14539
1668   0.07963   0.88708   -0.41762   0.19721   0.07963   0.88708   -0.41762   0.19721   102.27661
1669   0.07961   0.88675   -0.41792   0.19797   0.07961   0.88675   -0.41792   0.19797   102.31018
1670   0.07974   0.88714   -0.41737   0.19739   0.07974   0.88714   -0.41737   0.19739   102.16980
1671   0.07976   0.88708   -0.41789   0.19700   0.07976   0.88708   -0.41789   0.19700   102.16675
1672   0.07964   0.88723   -0.41813   0.19572   0.07964   0.88723   -0.41813   0.19572   102.29797
1673   0.07959   0.88702   -0.41774   0.19694   0.07959   0.88702   -0.41774   0.19694   102.29797
1674   0.07977   0.88687   -0.41792   0.19721   0.07977   0.88687   -0.41792   0.19721   102.21252
1675   0.07975   0.88723   -0.41740   0.19675   0.07975   0.88723   -0.41740   0.19675   102.20337
1676   0.07971   0.88775   -0.41609   0.19752   0.07971   0.88775   -0.41609   0.19752   102.26135
1677   0.07966   0.88717   -0.41765   0.19709   0.07966   0.88717   -0.41765   0.19709   102.26135
1678   0.07945   0.88684   -0.41804   0.19739   0.07945   0.88684   -0.41804   0.19739   102.18811
1679   0.07954   0.88684   -0.41783   0.19788   0.07954   0.88684   -0.41783   0.19788   102.25525
1680   0.07963   0.88714   -0.41728   0.19764   0.07963   0.88714   -0.41728   0.19764   102.32239
1681   0.07971   0.88720   -0.41731   0.19709   0.07971   0.88720   -0.41731   0.19709   102.21558
1682   0.07959   0.88675   -0.41868   0.19669   0.07959   0.88675   -0.41868   0.19669   102.17285
1683   0.07960   0.88702   -0.41807   0.19669   0.07960   0.88702   -0.41807   0.19669   102.27661
1684   0.07965   0.88736   -0.41646   0.19791   0.07965   0.88736   -0.41646   0.19791   102.25220
1685   0.07970   0.88696   -0.41752   0.19782   0.07970   0.88696   -0.41752   0.19782   102.21558
1686   0.07971   0.88702   -0.41813   0.19660   0.07971   0.88702   -0.41813   0.19660   102.24915
1687   0.07965   0.88690   -0.41810   0.19700   0.07965   0.88690   -0.41810   0.19700   102.29797
1688   0.07971   0.88702   -0.41725   0.19807   0.07971   0.88702   -0.41725   0.19807   102.22778
1689   0.07973   0.88647   -0.41890   0.19718   0.07973   0.88647   -0.41890   0.19718   102.22778
1690   0.07967   0.88711   -0.41737   0.19742   0.07967   0.88711   -0.41737   0.19742   102.26135
1691   0.07968   0.88632   -0.41923   0.19739   0.07968   0.88632   -0.41923   0.19739   102.24915
1692   0.07973   0.88675   -0.41838   0.19721   0.07973   0.88675   -0.41838   0.19721   102.14539
1693   0.07963   0.88626   -0.41893   0.19810   0.07963   0.88626   -0.41893   0.19810   102.21863
1694   0.07971   0.88662   -0.41847   0.19761   0.07971   0.88662   -0.41847   0.19761   102.27356
1695   0.07968   0.88678   -0.41820   0.19742   0.07968   0.88678   -0.41820   0.19742   102.26135
1696   0.07970   0.88638   -0.41868   0.19837   0.07970   0.88638   -0.41868   0.19837   102.18201
1697   0.07977   0.88668   -0.41826   0.19755   0.07977   0.88668   -0.41826   0.19755   102.24915
1698   0.07966   0.88632   -0.41942   0.19681   0.07966   0.88632   -0.41942   0.19681   102.31934
1699   0.07975   0.88641   -0.41908   0.19709   0.07975   0.88641   -0.41908   0.19709   102.23694
1700   0.07980   0.88577   -0.41993   0.19831   0.07980   0.88577   -0.41993   0.19831   102.16675
1701   0.07966   0.88720   -0.41762   0.19691   0.07966   0.88720   -0.41762   0.19691   102.25220
1702   0.07967   0.88687   -0.41807   0.19724   0.07967   0.88687   -0.41807   0.19724   102.29797
1703   0.07975   0.88656   -0.41859   0.19758   0.07975   0.88656   -0.41859   0.19758   102.23694
1704   0.07978   0.88687   -0.41810   0.19733   0.07978   0.88687   -0.41810   0.19733   102.16675
1705   0.07967   0.88662   -0.41893   0.19694   0.07967   0.88662   -0.41893   0.19694   102.26135
1706   0.07963   0.88617   -0.41954   0.19742   0.07963   0.88617   -0.41954   0.19742   102.33154
1707   0.07966   0.88644   -0.41829   0.19861   0.07966   0.88644   -0.41829   0.19861   102.20642
1708   0.07969   0.88675   -0.41798   0.19819   0.07969   0.88675   -0.41798   0.19819   102.16980
1709   0.07962   0.88638   -0.41871   0.19788   0.07962   0.88638   -0.41871   0.19788   102.26440
1710   0.07964   0.88702   -0.41768   0.19767   0.07964   0.88702   -0.41768   0.19767   102.25220
1711   0.07972   0.88641   -0.41844   0.19846   0.07972   0.88641   -0.41844   0.19846   102.20337
1712   0.07972   0.88656   -0.41859   0.19773   0.07972   0.88656   -0.41859   0.19773   102.22778
1713   0.07966   0.88672   -0.41902   0.19642   0.07966   0.88672   -0.41902   0.19642   102.25220
1714   0.07965   0.88665   -0.41884   0.19669   0.07965   0.88665   -0.41884   0.19669   102.21863
1715   0.07975   0.88672   -0.41807   0.19807   0.07975   0.88672   -0.41807   0.19807   102.19116
1716   0.07972   0.88656   -0.41826   0.19782   0.07972   0.88656   -0.41826   0.19782   102.23694
1717   0.07973   0.88675   -0.41844   0.19715   0.07973   0.88675   -0.41844   0.19715   102.21558
1718   0.07974   0.88696   -0.41801   0.19706   0.07974   0.88696   -0.41801   0.19706   102.21558
1719   0.07968   0.88653   -0.41865   0.19773   0.07968   0.88653   -0.41865   0.19773   102.26135
1720   0.07962   0.88638   -0.41884   0.19761   0.07962   0.88638   -0.41884   0.19761   102.31018
1721   0.07961   0.88653   -0.41862   0.19742   0.07961   0.88653   -0.41862   0.19742   102.25220
1722   0.07971   0.88708   -0.41743   0.19715   0.07971   0.88708   -0.41743   0.19715   102.20337
1723   0.07966   0.88714   -0.41768   0.19678   0.07966   0.88714   -0.41768   0.19678   102.28577
1724   0.07955   0.88675   -0.41917   0.19553   0.07955   0.88675   -0.41917   0.19553   102.27661
1725   0.07965   0.88726   -0.41768   0.19636   0.07965   0.88726   -0.41768   0.19636   102.19421
1726   0.07966   0.88693   -0.41877   0.19581   0.07966   0.88693   -0.41877   0.19581   102.16980
1727   0.07966   0.88668   -0.41853   0.19718   0.07966   0.88668   -0.41853   0.19718   102.26135
1728   0.07966   0.88659   -0.41838   0.19739   0.07966   0.88659   -0.41838   0.19739   102.31934
1729   0.07978   0.88626   -0.41877   0.19831   0.07978   0.88626   -0.41877   0.19831   102.15759
1730   0.07972   0.88647   -0.41887   0.19752   0.07972   0.88647   -0.41887   0.19752   102.21558
1731   0.07969   0.88675   -0.41816   0.19715   0.07969   0.88675   -0.41816   0.19715   102.34375
1732   0.07970   0.88717   -0.41691   0.19834   0.07970   0.88717   -0.41691   0.19834   102.24915
1733   0.07973   0.88598   -0.41911   0.19871   0.07973   0.88598   -0.41911   0.19871   102.16980
1734   0.07966   0.88687   -0.41765   0.19822   0.07966   0.88687   -0.41765   0.19822   102.23999
1735   0.07957   0.88662   -0.41887   0.19663   0.07957   0.88662   -0.41887   0.19663   102.28882
1736   0.07966   0.88678   -0.41823   0.19749   0.07966   0.88678   -0.41823   0.19749   102.26135
1737   0.07971   0.88672   -0.41816   0.19739   0.07971   0.88672   -0.41816   0.19739   102.19116
1738   0.07967   0.88626   -0.41905   0.19758   0.07967   0.88626   -0.41905   0.19758   102.21558
1739   0.07962   0.88641   -0.41899   0.19749   0.07962   0.88641   -0.41899   0.19749   102.31018
1740   0.07971   0.88635   -0.41850   0.19819   0.07971   0.88635   -0.41850   0.19819   102.24915
1741   0.07975   0.88617   -0.41935   0.19779   0.07975   0.88617   -0.41935   0.19779   102.20337
1742   0.07975   0.88650   -0.41920   0.19645   0.07975   0.88650   -0.41920   0.19645   102.22473
1743   0.07969   0.88723   -0.41768   0.19706   0.07969   0.88723   -0.41768   0.19706   102.27356
1744   0.07976   0.88668   -0.41807   0.19822   0.07976   0.88668   -0.41807   0.19822   102.22473
1745   0.07977   0.88641   -0.41874   0.19749   0.07977   0.88641   -0.41874   0.19749   102.22473
1746   0.07970   0.88656   -0.41835   0.19822   0.07970   0.88656   -0.41835   0.19822   102.29492
1747   0.07966   0.88635   -0.41847   0.19834   0.07966   0.88635   -0.41847   0.19834   102.30713
1748   0.07967   0.88684   -0.41804   0.19761   0.07967   0.88684   -0.41804   0.19761   102.20337
1749   0.07962   0.88681   -0.41758   0.19864   0.07962   0.88681   -0.41758   0.19864   102.23083
1750   0.07964   0.88623   -0.41902   0.19782   0.07964   0.88623   -0.41902   0.19782   102.29797
1751   0.07968   0.88638   -0.41835   0.19864   0.07968   0.88638   -0.41835   0.19864   102.21558
1752   0.07971   0.88644   -0.41859   0.19779   0.07971   0.88644   -0.41859   0.19779   102.22778
1753   0.07966   0.88668   -0.41850   0.19742   0.07966   0.88668   -0.41850   0.19742   102.23999
1754   0.07968   0.88620   -0.41969   0.19706   0.07968   0.88620   -0.41969   0.19706   102.27356
1755   0.07973   0.88614   -0.41908   0.19828   0.07973   0.88614   -0.41908   0.19828   102.21558
1756   0.07973   0.88635   -0.41914   0.19724   0.07973   0.88635   -0.41914   0.19724   102.24915
1757   0.07966   0.88620   -0.41932   0.19758   0.07966   0.88620   -0.41932   0.19758   102.29797
1758   0.07961   0.88629   -0.41890   0.19773   0.07961   0.88629   -0.41890   0.19773   102.23083
1759   0.07959   0.88638   -0.41923   0.19733   0.07959   0.88638   -0.41923   0.19733   102.17285
1760   0.07967   0.88696   -0.41792   0.19684   0.07967   0.88696   -0.41792   0.19684   102.22778
1761   0.07968   0.88656   -0.41905   0.19703   0.07968   0.88656   -0.41905   0.19703   102.30713
1762   0.07964   0.88675   -0.41801   0.19770   0.07964   0.88675   -0.41801   0.19770   102.21863
1763   0.07970   0.88647   -0.41896   0.19767   0.07970   0.88647   -0.41896   0.19767   102.18201
1764   0.07963   0.88610   -0.41969   0.19761   0.07963   0.88610   -0.41969   0.19761   102.26440
1765   0.07966   0.88696   -0.41798   0.19703   0.07966   0.88696   -0.41798   0.19703   102.30713
1766   0.07977   0.88656   -0.41856   0.19767   0.07977   0.88656   -0.41856   0.19767   102.20337
1767   0.07975   0.88647   -0.41835   0.19825   0.07975   0.88647   -0.41835   0.19825   102.21558
1768   0.07969   0.88635   -0.41884   0.19785   0.07969   0.88635   -0.41884   0.19785   102.27356
1769   0.07966   0.88675   -0.41774   0.19855   0.07966   0.88675   -0.41774   0.19855   102.26135
1770   0.07976   0.88672   -0.41810   0.19745   0.07976   0.88672   -0.41810   0.19745   102.20337
1771   0.07969   0.88745   -0.41762   0.19529   0.07969   0.88745   -0.41762   0.19529   102.21558
1772   0.07963   0.88675   -0.41868   0.19623   0.07963   0.88675   -0.41868   0.19623   102.31018
1773   0.07968   0.88702   -0.41801   0.19660   0.07968   0.88702   -0.41801   0.19660   102.23999
1774   0.07973   0.88672   -0.41865   0.19715   0.07973   0.88672   -0.41865   0.19715   102.20337
1775   0.07966   0.88656   -0.41887   0.19715   0.07966   0.88656   -0.41887   0.19715   102.23999
1776   0.07957   0.88708   -0.41746   0.19718   0.07957   0.88708   -0.41746   0.19718   102.30103
1777   0.07968   0.88672   -0.41832   0.19733   0.07968   0.88672   -0.41832   0.19733   102.23999
1778   0.07979   0.88690   -0.41783   0.19721   0.07979   0.88690   -0.41783   0.19721   102.23694
1779   0.07971   0.88629   -0.41926   0.19721   0.07971   0.88629   -0.41926   0.19721   102.23694
1780   0.07953   0.88696   -0.41749   0.19822   0.07953   0.88696   -0.41749   0.19822   102.28882
1781   0.07966   0.88653   -0.41838   0.19819   0.07966   0.88653   -0.41838   0.19819   102.21558
1782   0.07977   0.88665   -0.41881   0.19639   0.07977   0.88665   -0.41881   0.19639   102.24915
1783   0.07978   0.88684   -0.41820   0.19706   0.07978   0.88684   -0.41820   0.19706   102.27051
1784   0.07976   0.88723   -0.41716   0.19773   0.07976   0.88723   -0.41716   0.19773   102.21558
1785   0.07975   0.88662   -0.41853   0.19755   0.07975   0.88662   -0.41853   0.19755   102.20337
1786   0.07974   0.88693   -0.41835   0.19648   0.07974   0.88693   -0.41835   0.19648   102.27051
1787   0.07972   0.88684   -0.41810   0.19709   0.07972   0.88684   -0.41810   0.19709   102.26135
1788   0.07976   0.88668   -0.41810   0.19791   0.07976   0.88668   -0.41810   0.19791   102.20337
1789   0.07964   0.88650   -0.41841   0.19843   0.07964   0.88650   -0.41841   0.19843   102.22778
1790   0.07956   0.88641   -0.41963   0.19602   0.07956   0.88641   -0.41963   0.19602   102.32239
1791   0.07968   0.88672   -0.41847   0.19724   0.07968   0.88672   -0.41847   0.19724   102.24915
1792   0.07974   0.88662   -0.41771   0.19898   0.07974   0.88662   -0.41771   0.19898   102.16980
1793   0.07968   0.88638   -0.41920   0.19742   0.07968   0.88638   -0.41920   0.19742   102.22778
1794   0.07976   0.88672   -0.41829   0.19749   0.07976   0.88672   -0.41829   0.19749   102.30713
1795   0.07968   0.88733   -0.41774   0.19605   0.07968   0.88733   -0.41774   0.19605   102.20337
1796   0.07951   0.88693   -0.41847   0.19642   0.07951   0.88693   -0.41847   0.19642   102.15149
1797   0.07964   0.88720   -0.41716   0.19767   0.07964   0.88720   -0.41716   0.19767   102.23999
1798   0.07972   0.88656   -0.41853   0.19724   0.07972   0.88656   -0.41853   0.19724   102.30713
1799   0.07974   0.88668   -0.41801   0.19794   0.07974   0.88668   -0.41801   0.19794   102.19116
1800   0.07966   0.88641   -0.41887   0.19776   0.07966   0.88641   -0.41887   0.19776   102.20642
1801   0.07963   0.88653   -0.41871   0.19742   0.07963   0.88653   -0.41871   0.19742   102.27661
1802   0.07962   0.88675   -0.41807   0.19791   0.07962   0.88675   -0.41807   0.19791   102.31018
1803   0.07961   0.88723   -0.41700   0.19773   0.07961   0.88723   -0.41700   0.19773   102.21863
1804   0.07966   0.88653   -0.41911   0.19654   0.07966   0.88653   -0.41911   0.19654   102.20642
1805   0.07959   0.88659   -0.41853   0.19724   0.07959   0.88659   -0.41853   0.19724   102.28882
1806   0.07965   0.88684   -0.41856   0.19648   0.07965   0.88684   -0.41856   0.19648   102.26440
1807   0.07968   0.88647   -0.41896   0.19727   0.07968   0.88647   -0.41896   0.19727   102.21558
1808   0.07966   0.88705   -0.41725   0.19816   0.07966   0.88705   -0.41725   0.19816   102.23999
1809   0.07960   0.88675   -0.41899   0.19572   0.07960   0.88675   -0.41899   0.19572   102.23999
1810   0.07964   0.88714   -0.41816   0.19623   0.07964   0.88714   -0.41816   0.19623   102.19421
1811   0.07972   0.88684   -0.41853   0.19697   0.07972   0.88684   -0.41853   0.19697   102.19116
1812   0.07966   0.88641   -0.41887   0.19724   0.07966   0.88641   -0.41887   0.19724   102.26135
1813   0.07972   0.88726   -0.41713   0.19739   0.07972   0.88726   -0.41713   0.19739   102.24915
1814   0.07977   0.88693   -0.41820   0.19709   0.07977   0.88693   -0.41820   0.19709   102.21252
1815   0.07968   0.88656   -0.41865   0.19730   0.07968   0.88656   -0.41865   0.19730   102.26135
1816   0.07959   0.88687   -0.41801   0.19761   0.07959   0.88687   -0.41801   0.19761   102.28882
1817   0.07958   0.88632   -0.41890   0.19825   0.07958   0.88632   -0.41890   0.19825   102.20642
1818   0.07970   0.88668   -0.41853   0.19718   0.07970   0.88668   -0.41853   0.19718   102.20337
1819   0.07961   0.88653   -0.41929   0.19623   0.07961   0.88653   -0.41929   0.19623   102.28577
1820   0.07964   0.88662   -0.41871   0.19721   0.07964   0.88662   -0.41871   0.19721   102.31934
1821   0.07970   0.88678   -0.41826   0.19724   0.07970   0.88678   -0.41826   0.19724   102.21558
1822   0.07975   0.88696   -0.41841   0.19651   0.07975   0.88696   -0.41841   0.19651   102.17896
1823   0.07966   0.88696   -0.41786   0.19730   0.07966   0.88696   -0.41786   0.19730   102.27356
1824   0.07966   0.88647   -0.41890   0.19755   0.07966   0.88647   -0.41890   0.19755   102.25220
1825   0.07976   0.88650   -0.41820   0.19828   0.07976   0.88650   -0.41820   0.19828   102.17896
1826   0.07971   0.88730   -0.41710   0.19755   0.07971   0.88730   -0.41710   0.19755   102.23694
1827   0.07969   0.88687   -0.41789   0.19758   0.07969   0.88687   -0.41789   0.19758   102.29492
1828   0.07968   0.88678   -0.41807   0.19742   0.07968   0.88678   -0.41807   0.19742   102.26135
1829   0.07976   0.88678   -0.41810   0.19764   0.07976   0.88678   -0.41810   0.19764   102.13318
1830   0.07968   0.88723   -0.41746   0.19706   0.07968   0.88723   -0.41746   0.19706   102.20337
1831   0.07956   0.88711   -0.41762   0.19666   0.07956   0.88711   -0.41762   0.19666   102.32239
1832   0.07965   0.88687   -0.41820   0.19706   0.07965   0.88687   -0.41820   0.19706   102.25220
1833   0.07972   0.88687   -0.41786   0.19733   0.07972   0.88687   -0.41786   0.19733   102.16980
1834   0.07966   0.88687   -0.41877   0.19538   0.07966   0.88687   -0.41877   0.19538   102.25220
1835   0.07955   0.88720   -0.41847   0.19459   0.07955   0.88720   -0.41847   0.19459   102.32239
1836   0.07970   0.88656   -0.41844   0.19742   0.07970   0.88656   -0.41844   0.19742   102.24915
1837   0.07972   0.88644   -0.41881   0.19715   0.07972   0.88644   -0.41881   0.19715   102.21558
1838   0.07966   0.88708   -0.41853   0.19510   0.07966   0.88708   -0.41853   0.19510   102.23999
1839   0.07962   0.88675   -0.41905   0.19602   0.07962   0.88675   -0.41905   0.19602   102.27661
1840   0.07966   0.88751   -0.41758   0.19562   0.07966   0.88751   -0.41758   0.19562   102.18201
1841   0.07969   0.88681   -0.41871   0.19578   0.07969   0.88681   -0.41871   0.19578   102.18201
1842   0.07959   0.88736   -0.41795   0.19532   0.07959   0.88736   -0.41795   0.19532   102.26440
1843   0.07961   0.88714   -0.41774   0.19633   0.07961   0.88714   -0.41774   0.19633   102.29797
1844   0.07960   0.88717   -0.41743   0.19703   0.07960   0.88717   -0.41743   0.19703   102.23083
1845   0.07958   0.88696   -0.41777   0.19749   0.07958   0.88696   -0.41777   0.19749   102.28882
1846   0.07961   0.88696   -0.41847   0.19605   0.07961   0.88696   -0.41847   0.19605   102.29797
1847   0.07966   0.88702   -0.41810   0.19614   0.07966   0.88702   -0.41810   0.19614   102.21558
1848   0.07966   0.88730   -0.41774   0.19596   0.07966   0.88730   -0.41774   0.19596   102.23999
1849   0.07967   0.88693   -0.41893   0.19501   0.07967   0.88693   -0.41893   0.19501   102.30713
1850   0.07968   0.88672   -0.41881   0.19617   0.07968   0.88672   -0.41881   0.19617   102.29797
1851   0.07974   0.88702   -0.41820   0.19605   0.07974   0.88702   -0.41820   0.19605   102.20337
1852   0.07973   0.88708   -0.41838   0.19562   0.07973   0.88708   -0.41838   0.19562   102.27356
1853   0.07967   0.88757   -0.41700   0.19654   0.07967   0.88757   -0.41700   0.19654   102.29797
1854   0.07973   0.88714   -0.41728   0.19752   0.07973   0.88714   -0.41728   0.19752   102.23694
1855   0.07975   0.88690   -0.41783   0.19739   0.07975   0.88690   -0.41783   0.19739   102.15759
1856   0.07965   0.88720   -0.41728   0.19730   0.07965   0.88720   -0.41728   0.19730   102.28577
1857   0.07965   0.88739   -0.41762   0.19572   0.07965   0.88739   -0.41762   0.19572   102.29797
1858   0.07964   0.88754   -0.41667   0.19697   0.07964   0.88754   -0.41667   0.19697   102.21863
1859   0.07978   0.88751   -0.41670   0.19721   0.07978   0.88751   -0.41670   0.19721   102.19116
1860   0.07970   0.88775   -0.41679   0.19614   0.07970   0.88775   -0.41679   0.19614   102.28577
1861   0.07954   0.88742   -0.41719   0.19645   0.07954   0.88742   -0.41719   0.19645   102.28882
1862   0.07975   0.88739   -0.41731   0.19663   0.07975   0.88739   -0.41731   0.19663   102.12097
1863   0.07976   0.88708   -0.41774   0.19672   0.07976   0.88708   -0.41774   0.19672   102.21558
1864   0.07966   0.88723   -0.41737   0.19697   0.07966   0.88723   -0.41737   0.19697   102.29797
1865   0.07965   0.88757   -0.41673   0.19687   0.07965   0.88757   -0.41673   0.19687   102.27356
1866   0.07975   0.88751   -0.41673   0.19733   0.07975   0.88751   -0.41673   0.19733   102.19116
1867   0.07975   0.88751   -0.41673   0.19712   0.07975   0.88751   -0.41673   0.19712   102.20337
1868   0.07965   0.88726   -0.41716   0.19727   0.07965   0.88726   -0.41716   0.19727   102.31018
1869   0.07973   0.88754   -0.41664   0.19770   0.07973   0.88754   -0.41664   0.19770   102.21558
1870   0.07973   0.88702   -0.41746   0.19758   0.07973   0.88702   -0.41746   0.19758   102.20337
1871   0.07964   0.88736   -0.41679   0.19764   0.07964   0.88736   -0.41679   0.19764   102.25220
1872   0.07958   0.88757   -0.41679   0.19654   0.07958   0.88757   -0.41679   0.19654   102.28882
1873   0.07968   0.88775   -0.41615   0.19745   0.07968   0.88775   -0.41615   0.19745   102.22778
1874   0.07968   0.88772   -0.41618   0.19758   0.07968   0.88772   -0.41618   0.19758   102.20337
1875   0.07967   0.88745   -0.41682   0.19745   0.07967   0.88745   -0.41682   0.19745   102.25220
1876   0.07970   0.88739   -0.41652   0.19782   0.07970   0.88739   -0.41652   0.19782   102.24915
1877   0.07966   0.88757   -0.41630   0.19785   0.07966   0.88757   -0.41630   0.19785   102.16980
1878   0.07945   0.88815   -0.41539   0.19712   0.07945   0.88815   -0.41539   0.19712   102.20947
1879   0.07960   0.88714   -0.41725   0.19749   0.07960   0.88714   -0.41725   0.19749   102.25220
1880   0.07982   0.88778   -0.41633   0.19721   0.07982   0.88778   -0.41633   0.19721   102.20032
1881   0.07972   0.88766   -0.41585   0.19834   0.07972   0.88766   -0.41585   0.19834   102.22778
1882   0.07962   0.88797   -0.41615   0.19626   0.07962   0.88797   -0.41615   0.19626   102.28577
1883   0.07963   0.88763   -0.41658   0.19700   0.07963   0.88763   -0.41658   0.19700   102.21863
1884   0.07972   0.88772   -0.41554   0.19858   0.07972   0.88772   -0.41554   0.19858   102.14539
1885   0.07966   0.88772   -0.41624   0.19739   0.07966   0.88772   -0.41624   0.19739   102.20642
1886   0.07953   0.88791   -0.41597   0.19697   0.07953   0.88791   -0.41597   0.19697   102.30103
1887   0.07960   0.88836   -0.41508   0.19687   0.07960   0.88836   -0.41508   0.19687   102.26440
1888   0.07970   0.88830   -0.41496   0.19755   0.07970   0.88830   -0.41496   0.19755   102.14539
1889   0.07968   0.88821   -0.41514   0.19755   0.07968   0.88821   -0.41514   0.19755   102.20337
1890   0.07963   0.88800   -0.41578   0.19724   0.07963   0.88800   -0.41578   0.19724   102.25220
1891   0.07973   0.88794   -0.41557   0.19810   0.07973   0.88794   -0.41557   0.19810   102.17896
1892   0.07978   0.88775   -0.41600   0.19773   0.07978   0.88775   -0.41600   0.19773   102.13318
1893   0.07967   0.88800   -0.41536   0.19803   0.07967   0.88800   -0.41536   0.19803   102.25220
1894   0.07978   0.88812   -0.41539   0.19752   0.07978   0.88812   -0.41539   0.19752   102.27051
1895   0.07983   0.88772   -0.41627   0.19727   0.07983   0.88772   -0.41627   0.19727   102.14233
1896   0.07981   0.88824   -0.41520   0.19706   0.07981   0.88824   -0.41520   0.19706   102.15454
1897   0.07972   0.88818   -0.41533   0.19718   0.07972   0.88818   -0.41533   0.19718   102.23694
1898   0.07969   0.88833   -0.41508   0.19730   0.07969   0.88833   -0.41508   0.19730   102.28577
1899   0.07972   0.88791   -0.41600   0.19694   0.07972   0.88791   -0.41600   0.19694   102.19116
1900   0.07976   0.88745   -0.41713   0.19709   0.07976   0.88745   -0.41713   0.19709   102.20337
1901   0.07966   0.88803   -0.41600   0.19672   0.07966   0.88803   -0.41600   0.19672   102.28577
1902   0.07968   0.88788   -0.41594   0.19681   0.07968   0.88788   -0.41594   0.19681   102.22778
1903   0.07975   0.88739   -0.41649   0.19794   0.07975   0.88739   -0.41649   0.19794   102.22473
1904   0.07977   0.88751   -0.41688   0.19687   0.07977   0.88751   -0.41688   0.19687   102.19116
1905   0.07970   0.88772   -0.41612   0.19761   0.07970   0.88772   -0.41612   0.19761   102.24915
1906   0.07973   0.88812   -0.41505   0.19788   0.07973   0.88812   -0.41505   0.19788   102.17896
1907   0.07975   0.88769   -0.41597   0.19800   0.07975   0.88769   -0.41597   0.19800   102.22473
1908   0.07974   0.88812   -0.41554   0.19724   0.07974   0.88812   -0.41554   0.19724   102.21558
1909   0.07973   0.88754   -0.41661   0.19684   0.07973   0.88754   -0.41661   0.19684   102.30713
1910   0.07976   0.88809   -0.41505   0.19803   0.07976   0.88809   -0.41505   0.19803   102.19116
1911   0.07972   0.88809   -0.41572   0.19697   0.07972   0.88809   -0.41572   0.19697   102.22778
1912   0.07968   0.88794   -0.41615   0.19666   0.07968   0.88794   -0.41615   0.19666   102.23999
1913   0.07966   0.88745   -0.41685   0.19721   0.07966   0.88745   -0.41685   0.19721   102.22778
1914   0.07971   0.88769   -0.41588   0.19803   0.07971   0.88769   -0.41588   0.19803   102.19116
1915   0.07962   0.88800   -0.41575   0.19730   0.07962   0.88800   -0.41575   0.19730   102.25220
1916   0.07969   0.88852   -0.41481   0.19684   0.07969   0.88852   -0.41481   0.19684   102.23999
1917   0.07973   0.88788   -0.41536   0.19810   0.07973   0.88788   -0.41536   0.19810   102.16980
1918   0.07973   0.88818   -0.41530   0.19764   0.07973   0.88818   -0.41530   0.19764   102.20337
1919   0.07967   0.88797   -0.41533   0.19788   0.07967   0.88797   -0.41533   0.19788   102.29797
1920   0.07968   0.88836   -0.41459   0.19788   0.07968   0.88836   -0.41459   0.19788   102.23999
1921   0.07979   0.88821   -0.41459   0.19864   0.07979   0.88821   -0.41459   0.19864   102.12097
1922   0.07976   0.88800   -0.41548   0.19776   0.07976   0.88800   -0.41548   0.19776   102.19116
1923   0.07971   0.88809   -0.41536   0.19742   0.07971   0.88809   -0.41536   0.19742   102.27356
1924   0.07974   0.88821   -0.41472   0.19807   0.07974   0.88821   -0.41472   0.19807   102.23694
1925   0.07974   0.88821   -0.41523   0.19730   0.07974   0.88821   -0.41523   0.19730   102.12402
1926   0.07962   0.88821   -0.41548   0.19642   0.07962   0.88821   -0.41548   0.19642   102.20642
1927   0.07946   0.88800   -0.41527   0.19788   0.07946   0.88800   -0.41527   0.19788   102.27966
1928   0.07971   0.88827   -0.41438   0.19855   0.07971   0.88827   -0.41438   0.19855   102.18201
1929   0.07972   0.88861   -0.41371   0.19843   0.07972   0.88861   -0.41371   0.19843   102.15759
1930   0.07966   0.88784   -0.41517   0.19871   0.07966   0.88784   -0.41517   0.19871   102.23999
1931   0.07963   0.88815   -0.41496   0.19822   0.07963   0.88815   -0.41496   0.19822   102.31018
1932   0.07975   0.88855   -0.41340   0.19910   0.07975   0.88855   -0.41340   0.19910   102.15759
1933   0.07974   0.88781   -0.41539   0.19874   0.07974   0.88781   -0.41539   0.19874   102.16980
1934   0.07971   0.88803   -0.41475   0.19907   0.07971   0.88803   -0.41475   0.19907   102.22778
1935   0.07971   0.88815   -0.41481   0.19855   0.07971   0.88815   -0.41481   0.19855   102.22778
1936   0.07975   0.88778   -0.41520   0.19871   0.07975   0.88778   -0.41520   0.19871   102.19116
1937   0.07978   0.88824   -0.41432   0.19892   0.07978   0.88824   -0.41432   0.19892   102.20032
1938   0.07970   0.88827   -0.41447   0.19822   0.07970   0.88827   -0.41447   0.19822   102.27356
1939   0.07970   0.88812   -0.41432   0.19965   0.07970   0.88812   -0.41432   0.19965   102.19116
1940   0.07965   0.88818   -0.41472   0.19858   0.07965   0.88818   -0.41472   0.19858   102.18201
1941   0.07960   0.88809   -0.41429   0.19968   0.07960   0.88809   -0.41429   0.19968   102.23083
1942   0.07966   0.88775   -0.41585   0.19807   0.07966   0.88775   -0.41585   0.19807   102.23999
1943   0.07969   0.88815   -0.41487   0.19813   0.07969   0.88815   -0.41487   0.19813   102.19421
1944   0.07969   0.88778   -0.41527   0.19932   0.07969   0.88778   -0.41527   0.19932   102.18201
1945   0.07966   0.88852   -0.41414   0.19803   0.07966   0.88852   -0.41414   0.19803   102.23999
1946   0.07975   0.88833   -0.41465   0.19800   0.07975   0.88833   -0.41465   0.19800   102.17896
1947   0.07977   0.88772   -0.41542   0.19892   0.07977   0.88772   -0.41542   0.19892   102.16675
1948   0.07973   0.88784   -0.41530   0.19831   0.07973   0.88784   -0.41530   0.19831   102.23694
1949   0.07969   0.88812   -0.41481   0.19810   0.07969   0.88812   -0.41481   0.19810   102.27356
1950   0.07978   0.88806   -0.41487   0.19864   0.07978   0.88806   -0.41487   0.19864   102.19116
1951   0.07980   0.88830   -0.41441   0.19837   0.07980   0.88830   -0.41441   0.19837   102.20032
1952   0.07970   0.88772   -0.41572   0.19861   0.07970   0.88772   -0.41572   0.19861   102.27356
1953   0.07966   0.88836   -0.41462   0.19776   0.07966   0.88836   -0.41462   0.19776   102.23999
1954   0.07970   0.88800   -0.41530   0.19813   0.07970   0.88800   -0.41530   0.19813   102.14539
1955   0.07971   0.88784   -0.41536   0.19864   0.07971   0.88784   -0.41536   0.19864   102.18201
1956   0.07961   0.88772   -0.41511   0.19919   0.07961   0.88772   -0.41511   0.19919   102.29797
1957   0.07966   0.88778   -0.41542   0.19892   0.07966   0.88778   -0.41542   0.19892   102.23999
1958   0.07966   0.88791   -0.41527   0.19904   0.07966   0.88791   -0.41527   0.19904   102.11487
1959   0.07954   0.88830   -0.41456   0.19825   0.07954   0.88830   -0.41456   0.19825   102.18506
1960   0.07966   0.88845   -0.41453   0.19764   0.07966   0.88845   -0.41453   0.19764   102.26135
1961   0.07981   0.88800   -0.41517   0.19819   0.07981   0.88800   -0.41517   0.19819   102.23694
1962   0.07984   0.88806   -0.41465   0.19932   0.07984   0.88806   -0.41465   0.19932   102.10876
1963   0.07966   0.88815   -0.41472   0.19837   0.07966   0.88815   -0.41472   0.19837   102.21558
1964   0.07967   0.88781   -0.41551   0.19846   0.07967   0.88781   -0.41551   0.19846   102.25220
1965   0.07979   0.88815   -0.41453   0.19877   0.07979   0.88815   -0.41453   0.19877   102.20032
1966   0.07982   0.88836   -0.41432   0.19858   0.07982   0.88836   -0.41432   0.19858   102.17896
1967   0.07972   0.88809   -0.41517   0.19803   0.07972   0.88809   -0.41517   0.19803   102.23694
1968   0.07959   0.88849   -0.41404   0.19837   0.07959   0.88849   -0.41404   0.19837   102.25220
1969   0.07972   0.88806   -0.41496   0.19840   0.07972   0.88806   -0.41496   0.19840   102.16980
1970   0.07970   0.88852   -0.41417   0.19810   0.07970   0.88852   -0.41417   0.19810   102.15759
1971   0.07970   0.88812   -0.41487   0.19843   0.07970   0.88812   -0.41487   0.19843   102.22778
1972   0.07967   0.88794   -0.41478   0.19904   0.07967   0.88794   -0.41478   0.19904   102.18201
1973   0.07974   0.88827   -0.41469   0.19794   0.07974   0.88827   -0.41469   0.19794   102.21558
1974   0.07973   0.88815   -0.41462   0.19837   0.07973   0.88815   -0.41462   0.19837   102.23694
1975   0.07972   0.88818   -0.41456   0.19889   0.07972   0.88818   -0.41456   0.19889   102.24915
1976   0.07977   0.88794   -0.41484   0.19919   0.07977   0.88794   -0.41484   0.19919   102.16675
1977   0.07976   0.88757   -0.41539   0.19977   0.07976   0.88757   -0.41539   0.19977   102.19116
1978   0.07983   0.88806   -0.41502   0.19861   0.07983   0.88806   -0.41502   0.19861   102.25830
1979   0.07978   0.88788   -0.41505   0.19877   0.07978   0.88788   -0.41505   0.19877   102.20032
1980   0.07969   0.88781   -0.41533   0.19874   0.07969   0.88781   -0.41533   0.19874   102.12402
1981   0.07959   0.88815   -0.41478   0.19831   0.07959   0.88815   -0.41478   0.19831   102.24304
1982   0.07965   0.88824   -0.41438   0.19898   0.07965   0.88824   -0.41438   0.19898   102.26440
1983   0.07981   0.88797   -0.41530   0.19825   0.07981   0.88797   -0.41530   0.19825   102.18811
1984   0.07970   0.88833   -0.41453   0.19825   0.07970   0.88833   -0.41453   0.19825   102.14539
1985   0.07963   0.88861   -0.41408   0.19773   0.07963   0.88861   -0.41408   0.19773   102.25220
1986   0.07962   0.88858   -0.41368   0.19898   0.07962   0.88858   -0.41368   0.19898   102.28577
1987   0.07978   0.88842   -0.41395   0.19898   0.07978   0.88842   -0.41395   0.19898   102.16675
1988   0.07978   0.88845   -0.41432   0.19794   0.07978   0.88845   -0.41432   0.19794   102.16675
1989   0.07969   0.88821   -0.41487   0.19803   0.07969   0.88821   -0.41487   0.19803   102.27356
1990   0.07968   0.88781   -0.41533   0.19892   0.07968   0.88781   -0.41533   0.19892   102.26135
1991   0.07980   0.88788   -0.41539   0.19837   0.07980   0.88788   -0.41539   0.19837   102.16675
1992   0.07982   0.88781   -0.41563   0.19849   0.07982   0.88781   -0.41563   0.19849   102.15454
1993   0.07972   0.88791   -0.41514   0.19910   0.07972   0.88791   -0.41514   0.19910   102.26135
1994   0.07978   0.88794   -0.41527   0.19825   0.07978   0.88794   -0.41527   0.19825   102.23694
1995   0.07961   0.88873   -0.41411   0.19773   0.07961   0.88873   -0.41411   0.19773   102.11487
1996   0.07941   0.88855   -0.41328   0.19950   0.07941   0.88855   -0.41328   0.19950   102.15454
1997   0.07959   0.88864   -0.41337   0.19916   0.07959   0.88864   -0.41337   0.19916   102.23083
1998   0.07973   0.88797   -0.41459   0.19996   0.07973   0.88797   -0.41459   0.19996   102.20337
1999   0.07970   0.88827   -0.41371   0.19980   0.07970   0.88827   -0.41371   0.19980   102.16980
2000   0.07957   0.88864   -0.41343   0.19889   0.07957   0.88864   -0.41343   0.19889   102.24304
