Sampling rate: 10000.000 samples/sec
Screen size: 2000 samples
DOP average: 1 SOPsamples
Start time: 16:25:56 5/18/2021
Interval: 0.000100000 sec
(Waveform type: 1,3,4,5)
Index      S0(mW)      S1      S2      S3      S0(mW)      S1      S2      S3      DOP
1   0.07932   0.89557   -0.40458   0.18583   0.07932   0.89557   -0.40458   0.18583   102.09961
2   0.07928   0.89505   -0.40559   0.18564   0.07928   0.89505   -0.40559   0.18564   102.18201
3   0.07932   0.89550   -0.40529   0.18461   0.07932   0.89550   -0.40529   0.18461   102.15759
4   0.07937   0.89511   -0.40590   0.18488   0.07937   0.89511   -0.40590   0.18488   102.12097
5   0.07932   0.89538   -0.40559   0.18461   0.07932   0.89538   -0.40559   0.18461   102.15759
6   0.07926   0.89547   -0.40513   0.18513   0.07926   0.89547   -0.40513   0.18513   102.21558
7   0.07933   0.89532   -0.40562   0.18458   0.07933   0.89532   -0.40562   0.18458   102.15759
8   0.07936   0.89544   -0.40468   0.18598   0.07936   0.89544   -0.40468   0.18598   102.05078
9   0.07925   0.89572   -0.40498   0.18476   0.07925   0.89572   -0.40498   0.18476   102.12402
10   0.07915   0.89502   -0.40645   0.18409   0.07915   0.89502   -0.40645   0.18409   102.24304
11   0.07927   0.89511   -0.40577   0.18555   0.07927   0.89511   -0.40577   0.18555   102.11182
12   0.07933   0.89499   -0.40571   0.18622   0.07933   0.89499   -0.40571   0.18622   102.08740
13   0.07926   0.89529   -0.40541   0.18552   0.07926   0.89529   -0.40541   0.18552   102.13623
14   0.07921   0.89520   -0.40565   0.18513   0.07921   0.89520   -0.40565   0.18513   102.23083
15   0.07933   0.89514   -0.40568   0.18522   0.07933   0.89514   -0.40568   0.18522   102.13318
16   0.07936   0.89499   -0.40580   0.18586   0.07936   0.89499   -0.40580   0.18586   102.10876
17   0.07930   0.89508   -0.40590   0.18506   0.07930   0.89508   -0.40590   0.18506   102.18201
18   0.07927   0.89511   -0.40602   0.18500   0.07927   0.89511   -0.40602   0.18500   102.20337
19   0.07934   0.89505   -0.40577   0.18574   0.07934   0.89505   -0.40577   0.18574   102.10876
20   0.07939   0.89538   -0.40574   0.18439   0.07939   0.89538   -0.40574   0.18439   102.07520
21   0.07930   0.89511   -0.40623   0.18473   0.07930   0.89511   -0.40623   0.18473   102.15759
22   0.07924   0.89499   -0.40626   0.18470   0.07924   0.89499   -0.40626   0.18470   102.18201
23   0.07928   0.89486   -0.40632   0.18540   0.07928   0.89486   -0.40632   0.18540   102.04163
24   0.07928   0.89529   -0.40580   0.18464   0.07928   0.89529   -0.40580   0.18464   102.12402
25   0.07922   0.89538   -0.40568   0.18473   0.07922   0.89538   -0.40568   0.18473   102.18201
26   0.07933   0.89514   -0.40605   0.18470   0.07933   0.89514   -0.40605   0.18470   102.13318
27   0.07941   0.89489   -0.40641   0.18485   0.07941   0.89489   -0.40641   0.18485   102.08435
28   0.07933   0.89492   -0.40611   0.18531   0.07933   0.89492   -0.40611   0.18531   102.12097
29   0.07922   0.89514   -0.40614   0.18458   0.07922   0.89514   -0.40614   0.18458   102.18201
30   0.07936   0.89520   -0.40562   0.18519   0.07936   0.89520   -0.40562   0.18519   102.09961
31   0.07939   0.89477   -0.40724   0.18406   0.07939   0.89477   -0.40724   0.18406   102.13318
32   0.07928   0.89514   -0.40571   0.18488   0.07928   0.89514   -0.40571   0.18488   102.16980
33   0.07929   0.89508   -0.40629   0.18482   0.07929   0.89508   -0.40629   0.18482   102.14539
34   0.07933   0.89520   -0.40547   0.18601   0.07933   0.89520   -0.40547   0.18601   102.07520
35   0.07928   0.89489   -0.40675   0.18412   0.07928   0.89489   -0.40675   0.18412   102.12402
36   0.07920   0.89508   -0.40580   0.18549   0.07920   0.89508   -0.40580   0.18549   102.23083
37   0.07920   0.89499   -0.40568   0.18583   0.07920   0.89499   -0.40568   0.18583   102.12708
38   0.07929   0.89447   -0.40721   0.18549   0.07929   0.89447   -0.40721   0.18549   102.08740
39   0.07922   0.89459   -0.40693   0.18497   0.07922   0.89459   -0.40693   0.18497   102.14844
40   0.07920   0.89499   -0.40614   0.18509   0.07920   0.89499   -0.40614   0.18509   102.19421
41   0.07931   0.89499   -0.40608   0.18571   0.07931   0.89499   -0.40608   0.18571   102.06604
42   0.07933   0.89483   -0.40712   0.18378   0.07933   0.89483   -0.40712   0.18378   102.11182
43   0.07924   0.89517   -0.40623   0.18448   0.07924   0.89517   -0.40623   0.18448   102.16980
44   0.07922   0.89496   -0.40651   0.18451   0.07922   0.89496   -0.40651   0.18451   102.16980
45   0.07918   0.89480   -0.40669   0.18464   0.07918   0.89480   -0.40669   0.18464   102.06909
46   0.07914   0.89480   -0.40645   0.18555   0.07914   0.89480   -0.40645   0.18555   102.15149
47   0.07926   0.89489   -0.40678   0.18424   0.07926   0.89489   -0.40678   0.18424   102.23999
48   0.07928   0.89483   -0.40617   0.18604   0.07928   0.89483   -0.40617   0.18604   102.16980
49   0.07926   0.89474   -0.40687   0.18455   0.07926   0.89474   -0.40687   0.18455   102.04163
50   0.07916   0.89499   -0.40608   0.18509   0.07916   0.89499   -0.40608   0.18509   102.13928
51   0.07913   0.89431   -0.40803   0.18406   0.07913   0.89431   -0.40803   0.18406   102.20947
52   0.07921   0.89462   -0.40706   0.18451   0.07921   0.89462   -0.40706   0.18451   102.20642
53   0.07923   0.89474   -0.40635   0.18552   0.07923   0.89474   -0.40635   0.18552   102.05383
54   0.07916   0.89502   -0.40617   0.18528   0.07916   0.89502   -0.40617   0.18528   102.16064
55   0.07920   0.89544   -0.40587   0.18342   0.07920   0.89544   -0.40587   0.18342   102.19421
56   0.07930   0.89486   -0.40645   0.18528   0.07930   0.89486   -0.40645   0.18528   102.06604
57   0.07928   0.89514   -0.40562   0.18561   0.07928   0.89514   -0.40562   0.18561   102.08740
58   0.07928   0.89496   -0.40660   0.18406   0.07928   0.89496   -0.40660   0.18406   102.18201
59   0.07925   0.89529   -0.40574   0.18455   0.07925   0.89529   -0.40574   0.18455   102.18201
60   0.07933   0.89499   -0.40657   0.18455   0.07933   0.89499   -0.40657   0.18455   102.09961
61   0.07935   0.89468   -0.40669   0.18540   0.07935   0.89468   -0.40669   0.18540   102.12097
62   0.07935   0.89444   -0.40828   0.18339   0.07935   0.89444   -0.40828   0.18339   102.19116
63   0.07930   0.89529   -0.40535   0.18528   0.07930   0.89529   -0.40535   0.18528   102.15759
64   0.07926   0.89486   -0.40645   0.18473   0.07926   0.89486   -0.40645   0.18473   102.12402
65   0.07925   0.89520   -0.40556   0.18503   0.07925   0.89520   -0.40556   0.18503   102.13623
66   0.07927   0.89499   -0.40620   0.18519   0.07927   0.89499   -0.40620   0.18519   102.16980
67   0.07930   0.89489   -0.40580   0.18644   0.07930   0.89489   -0.40580   0.18644   102.12402
68   0.07931   0.89505   -0.40538   0.18659   0.07931   0.89505   -0.40538   0.18659   102.14539
69   0.07932   0.89526   -0.40593   0.18427   0.07932   0.89526   -0.40593   0.18427   102.13318
70   0.07929   0.89535   -0.40599   0.18421   0.07929   0.89535   -0.40599   0.18421   102.16980
71   0.07937   0.89483   -0.40632   0.18555   0.07937   0.89483   -0.40632   0.18555   102.10876
72   0.07931   0.89505   -0.40623   0.18445   0.07931   0.89505   -0.40623   0.18445   102.12402
73   0.07929   0.89502   -0.40638   0.18451   0.07929   0.89502   -0.40638   0.18451   102.15759
74   0.07932   0.89483   -0.40666   0.18528   0.07932   0.89483   -0.40666   0.18528   102.16980
75   0.07937   0.89535   -0.40580   0.18464   0.07937   0.89535   -0.40580   0.18464   102.07520
76   0.07932   0.89508   -0.40626   0.18455   0.07932   0.89508   -0.40626   0.18455   102.15759
77   0.07920   0.89489   -0.40654   0.18464   0.07920   0.89489   -0.40654   0.18464   102.23083
78   0.07925   0.89496   -0.40617   0.18522   0.07925   0.89496   -0.40617   0.18522   102.09961
79   0.07932   0.89477   -0.40672   0.18464   0.07932   0.89477   -0.40672   0.18464   102.07520
80   0.07922   0.89480   -0.40635   0.18528   0.07922   0.89480   -0.40635   0.18528   102.16064
81   0.07923   0.89526   -0.40632   0.18342   0.07923   0.89526   -0.40632   0.18342   102.21558
82   0.07932   0.89474   -0.40687   0.18491   0.07932   0.89474   -0.40687   0.18491   102.09961
83   0.07933   0.89477   -0.40687   0.18458   0.07933   0.89477   -0.40687   0.18458   102.06299
84   0.07929   0.89489   -0.40684   0.18421   0.07929   0.89489   -0.40684   0.18421   102.18201
85   0.07922   0.89471   -0.40687   0.18451   0.07922   0.89471   -0.40687   0.18451   102.22778
86   0.07936   0.89483   -0.40657   0.18464   0.07936   0.89483   -0.40657   0.18464   102.08740
87   0.07937   0.89535   -0.40547   0.18506   0.07937   0.89535   -0.40547   0.18506   102.08740
88   0.07928   0.89520   -0.40593   0.18421   0.07928   0.89520   -0.40593   0.18421   102.23999
89   0.07926   0.89547   -0.40535   0.18470   0.07926   0.89547   -0.40535   0.18470   102.20337
90   0.07933   0.89502   -0.40638   0.18451   0.07933   0.89502   -0.40638   0.18451   102.11182
91   0.07928   0.89502   -0.40681   0.18372   0.07928   0.89502   -0.40681   0.18372   102.11182
92   0.07914   0.89523   -0.40577   0.18476   0.07914   0.89523   -0.40577   0.18476   102.18506
93   0.07926   0.89563   -0.40504   0.18491   0.07926   0.89563   -0.40504   0.18491   102.14844
94   0.07929   0.89529   -0.40562   0.18473   0.07929   0.89529   -0.40562   0.18473   102.09961
95   0.07926   0.89520   -0.40571   0.18509   0.07926   0.89520   -0.40571   0.18509   102.13623
96   0.07923   0.89508   -0.40602   0.18455   0.07923   0.89508   -0.40602   0.18455   102.18201
97   0.07930   0.89523   -0.40568   0.18497   0.07930   0.89523   -0.40568   0.18497   102.11182
98   0.07933   0.89517   -0.40568   0.18482   0.07933   0.89517   -0.40568   0.18482   102.13318
99   0.07930   0.89544   -0.40553   0.18403   0.07930   0.89544   -0.40553   0.18403   102.19116
100   0.07930   0.89538   -0.40544   0.18455   0.07930   0.89538   -0.40544   0.18455   102.16980
101   0.07933   0.89483   -0.40657   0.18488   0.07933   0.89483   -0.40657   0.18488   102.12097
102   0.07934   0.89489   -0.40663   0.18421   0.07934   0.89489   -0.40663   0.18421   102.16675
103   0.07931   0.89526   -0.40590   0.18439   0.07931   0.89526   -0.40590   0.18439   102.17896
104   0.07931   0.89557   -0.40498   0.18470   0.07931   0.89557   -0.40498   0.18470   102.08740
105   0.07927   0.89538   -0.40577   0.18397   0.07927   0.89538   -0.40577   0.18397   102.07825
106   0.07919   0.89544   -0.40535   0.18467   0.07919   0.89544   -0.40535   0.18467   102.13623
107   0.07924   0.89526   -0.40593   0.18439   0.07924   0.89526   -0.40593   0.18439   102.18201
108   0.07925   0.89544   -0.40535   0.18509   0.07925   0.89544   -0.40535   0.18509   102.09045
109   0.07929   0.89569   -0.40449   0.18528   0.07929   0.89569   -0.40449   0.18528   102.12402
110   0.07924   0.89584   -0.40507   0.18332   0.07924   0.89584   -0.40507   0.18332   102.15759
111   0.07922   0.89526   -0.40559   0.18519   0.07922   0.89526   -0.40559   0.18519   102.20642
112   0.07936   0.89499   -0.40626   0.18500   0.07936   0.89499   -0.40626   0.18500   102.02942
113   0.07933   0.89566   -0.40501   0.18497   0.07933   0.89566   -0.40501   0.18497   102.07520
114   0.07927   0.89541   -0.40522   0.18476   0.07927   0.89541   -0.40522   0.18476   102.20337
115   0.07932   0.89535   -0.40587   0.18406   0.07932   0.89535   -0.40587   0.18406   102.13318
116   0.07939   0.89502   -0.40654   0.18403   0.07939   0.89502   -0.40654   0.18403   102.08740
117   0.07932   0.89526   -0.40577   0.18467   0.07932   0.89526   -0.40577   0.18467   102.12097
118   0.07922   0.89554   -0.40529   0.18445   0.07922   0.89554   -0.40529   0.18445   102.23999
119   0.07924   0.89505   -0.40626   0.18424   0.07924   0.89505   -0.40626   0.18424   102.13623
120   0.07929   0.89538   -0.40507   0.18528   0.07929   0.89538   -0.40507   0.18528   102.05383
121   0.07923   0.89535   -0.40498   0.18580   0.07923   0.89535   -0.40498   0.18580   102.16980
122   0.07920   0.89520   -0.40605   0.18412   0.07920   0.89520   -0.40605   0.18412   102.21863
123   0.07931   0.89550   -0.40535   0.18427   0.07931   0.89550   -0.40535   0.18427   102.14539
124   0.07932   0.89560   -0.40495   0.18461   0.07932   0.89560   -0.40495   0.18461   102.09961
125   0.07923   0.89526   -0.40577   0.18464   0.07923   0.89526   -0.40577   0.18464   102.18201
126   0.07904   0.89569   -0.40544   0.18339   0.07904   0.89569   -0.40544   0.18339   102.18811
127   0.07922   0.89566   -0.40443   0.18537   0.07922   0.89566   -0.40443   0.18537   102.10266
128   0.07939   0.89550   -0.40544   0.18448   0.07939   0.89550   -0.40544   0.18448   102.10876
129   0.07934   0.89581   -0.40455   0.18439   0.07934   0.89581   -0.40455   0.18439   102.17896
130   0.07928   0.89520   -0.40568   0.18543   0.07928   0.89520   -0.40568   0.18543   102.13623
131   0.07932   0.89541   -0.40541   0.18464   0.07932   0.89541   -0.40541   0.18464   102.13318
132   0.07933   0.89486   -0.40672   0.18433   0.07933   0.89486   -0.40672   0.18433   102.13318
133   0.07922   0.89560   -0.40495   0.18464   0.07922   0.89560   -0.40495   0.18464   102.18201
134   0.07930   0.89566   -0.40480   0.18500   0.07930   0.89566   -0.40480   0.18500   102.14539
135   0.07932   0.89541   -0.40599   0.18372   0.07932   0.89541   -0.40599   0.18372   102.12097
136   0.07930   0.89532   -0.40571   0.18458   0.07930   0.89532   -0.40571   0.18458   102.14539
137   0.07932   0.89523   -0.40611   0.18387   0.07932   0.89523   -0.40611   0.18387   102.16980
138   0.07936   0.89532   -0.40547   0.18482   0.07936   0.89532   -0.40547   0.18482   102.10876
139   0.07932   0.89541   -0.40562   0.18461   0.07932   0.89541   -0.40562   0.18461   102.11182
140   0.07926   0.89505   -0.40596   0.18476   0.07926   0.89505   -0.40596   0.18476   102.21558
141   0.07933   0.89557   -0.40538   0.18430   0.07933   0.89557   -0.40538   0.18430   102.14539
142   0.07935   0.89544   -0.40519   0.18485   0.07935   0.89544   -0.40519   0.18485   102.08740
143   0.07931   0.89499   -0.40617   0.18479   0.07931   0.89499   -0.40617   0.18479   102.19116
144   0.07928   0.89544   -0.40516   0.18488   0.07928   0.89544   -0.40516   0.18488   102.20337
145   0.07942   0.89514   -0.40562   0.18528   0.07942   0.89514   -0.40562   0.18528   102.08435
146   0.07941   0.89560   -0.40477   0.18543   0.07941   0.89560   -0.40477   0.18543   102.08435
147   0.07911   0.89538   -0.40623   0.18274   0.07911   0.89538   -0.40623   0.18274   102.19727
148   0.07914   0.89529   -0.40623   0.18357   0.07914   0.89529   -0.40623   0.18357   102.20947
149   0.07933   0.89550   -0.40541   0.18427   0.07933   0.89550   -0.40541   0.18427   102.06299
150   0.07941   0.89547   -0.40532   0.18491   0.07941   0.89547   -0.40532   0.18491   102.03857
151   0.07930   0.89523   -0.40574   0.18500   0.07930   0.89523   -0.40574   0.18500   102.16980
152   0.07926   0.89520   -0.40599   0.18442   0.07926   0.89520   -0.40599   0.18442   102.19421
153   0.07934   0.89517   -0.40587   0.18525   0.07934   0.89517   -0.40587   0.18525   102.07520
154   0.07939   0.89569   -0.40504   0.18412   0.07939   0.89569   -0.40504   0.18412   102.10876
155   0.07932   0.89541   -0.40602   0.18360   0.07932   0.89541   -0.40602   0.18360   102.22778
156   0.07931   0.89511   -0.40605   0.18451   0.07931   0.89511   -0.40605   0.18451   102.17896
157   0.07941   0.89508   -0.40614   0.18439   0.07941   0.89508   -0.40614   0.18439   102.03857
158   0.07934   0.89492   -0.40654   0.18479   0.07934   0.89492   -0.40654   0.18479   102.15759
159   0.07925   0.89532   -0.40602   0.18415   0.07925   0.89532   -0.40602   0.18415   102.19421
160   0.07929   0.89547   -0.40486   0.18534   0.07929   0.89547   -0.40486   0.18534   102.12402
161   0.07933   0.89557   -0.40495   0.18503   0.07933   0.89557   -0.40495   0.18503   102.07520
162   0.07943   0.89492   -0.40666   0.18427   0.07943   0.89492   -0.40666   0.18427   102.14233
163   0.07916   0.89508   -0.40663   0.18357   0.07916   0.89508   -0.40663   0.18357   102.19727
164   0.07913   0.89572   -0.40501   0.18381   0.07913   0.89572   -0.40501   0.18381   102.15149
165   0.07935   0.89550   -0.40513   0.18485   0.07935   0.89550   -0.40513   0.18485   102.09961
166   0.07936   0.89544   -0.40587   0.18323   0.07936   0.89544   -0.40587   0.18323   102.15454
167   0.07924   0.89483   -0.40645   0.18503   0.07924   0.89483   -0.40645   0.18503   102.14844
168   0.07925   0.89508   -0.40590   0.18513   0.07925   0.89508   -0.40590   0.18513   102.11182
169   0.07931   0.89514   -0.40645   0.18387   0.07931   0.89514   -0.40645   0.18387   102.13318
170   0.07933   0.89529   -0.40602   0.18406   0.07933   0.89529   -0.40602   0.18406   102.17896
171   0.07934   0.89505   -0.40654   0.18400   0.07934   0.89505   -0.40654   0.18400   102.09961
172   0.07932   0.89514   -0.40632   0.18415   0.07932   0.89514   -0.40632   0.18415   102.07520
173   0.07927   0.89483   -0.40751   0.18308   0.07927   0.89483   -0.40751   0.18308   102.15759
174   0.07919   0.89511   -0.40638   0.18427   0.07919   0.89511   -0.40638   0.18427   102.18506
175   0.07924   0.89505   -0.40663   0.18372   0.07924   0.89505   -0.40663   0.18372   102.13623
176   0.07926   0.89517   -0.40556   0.18506   0.07926   0.89517   -0.40556   0.18506   102.13623
177   0.07922   0.89544   -0.40584   0.18302   0.07922   0.89544   -0.40584   0.18302   102.21863
178   0.07925   0.89535   -0.40550   0.18470   0.07925   0.89535   -0.40550   0.18470   102.16980
179   0.07933   0.89477   -0.40657   0.18479   0.07933   0.89477   -0.40657   0.18479   102.06299
180   0.07936   0.89538   -0.40617   0.18332   0.07936   0.89538   -0.40617   0.18332   102.09961
181   0.07925   0.89547   -0.40529   0.18476   0.07925   0.89547   -0.40529   0.18476   102.23999
182   0.07930   0.89492   -0.40614   0.18558   0.07930   0.89492   -0.40614   0.18558   102.11182
183   0.07937   0.89492   -0.40641   0.18458   0.07937   0.89492   -0.40641   0.18458   102.13318
184   0.07932   0.89514   -0.40626   0.18421   0.07932   0.89514   -0.40626   0.18421   102.14539
185   0.07927   0.89575   -0.40519   0.18366   0.07927   0.89575   -0.40519   0.18366   102.21558
186   0.07932   0.89532   -0.40590   0.18430   0.07932   0.89532   -0.40590   0.18430   102.11182
187   0.07932   0.89502   -0.40611   0.18494   0.07932   0.89502   -0.40611   0.18494   102.07520
188   0.07919   0.89514   -0.40657   0.18326   0.07919   0.89514   -0.40657   0.18326   102.17285
189   0.07917   0.89529   -0.40529   0.18509   0.07917   0.89529   -0.40529   0.18509   102.21863
190   0.07926   0.89514   -0.40577   0.18509   0.07926   0.89514   -0.40577   0.18509   102.12402
191   0.07930   0.89532   -0.40522   0.18549   0.07930   0.89532   -0.40522   0.18549   102.09961
192   0.07923   0.89517   -0.40605   0.18482   0.07923   0.89517   -0.40605   0.18482   102.20642
193   0.07925   0.89502   -0.40678   0.18381   0.07925   0.89502   -0.40678   0.18381   102.18201
194   0.07931   0.89502   -0.40626   0.18494   0.07931   0.89502   -0.40626   0.18494   102.08740
195   0.07933   0.89541   -0.40596   0.18397   0.07933   0.89541   -0.40596   0.18397   102.08740
196   0.07928   0.89517   -0.40593   0.18464   0.07928   0.89517   -0.40593   0.18464   102.23999
197   0.07930   0.89496   -0.40605   0.18503   0.07930   0.89496   -0.40605   0.18503   102.18201
198   0.07933   0.89532   -0.40513   0.18564   0.07933   0.89532   -0.40513   0.18564   102.11182
199   0.07933   0.89505   -0.40638   0.18436   0.07933   0.89505   -0.40638   0.18436   102.09961
200   0.07928   0.89505   -0.40632   0.18412   0.07928   0.89505   -0.40632   0.18412   102.19421
201   0.07926   0.89575   -0.40428   0.18546   0.07926   0.89575   -0.40428   0.18546   102.11182
202   0.07922   0.89529   -0.40623   0.18357   0.07922   0.89529   -0.40623   0.18357   102.10266
203   0.07928   0.89550   -0.40596   0.18320   0.07928   0.89550   -0.40596   0.18320   102.11182
204   0.07920   0.89541   -0.40571   0.18409   0.07920   0.89541   -0.40571   0.18409   102.18201
205   0.07930   0.89596   -0.40382   0.18534   0.07930   0.89596   -0.40382   0.18534   102.11182
206   0.07927   0.89505   -0.40587   0.18537   0.07927   0.89505   -0.40587   0.18537   102.12402
207   0.07923   0.89529   -0.40574   0.18451   0.07923   0.89529   -0.40574   0.18451   102.20642
208   0.07934   0.89511   -0.40611   0.18473   0.07934   0.89511   -0.40611   0.18473   102.09961
209   0.07935   0.89502   -0.40651   0.18455   0.07935   0.89502   -0.40651   0.18455   102.12097
210   0.07932   0.89563   -0.40535   0.18366   0.07932   0.89563   -0.40535   0.18366   102.15759
211   0.07926   0.89529   -0.40568   0.18473   0.07926   0.89529   -0.40568   0.18473   102.19421
212   0.07938   0.89486   -0.40699   0.18384   0.07938   0.89486   -0.40699   0.18384   102.12097
213   0.07935   0.89523   -0.40611   0.18412   0.07935   0.89523   -0.40611   0.18412   102.10876
214   0.07924   0.89511   -0.40608   0.18464   0.07924   0.89511   -0.40608   0.18464   102.21558
215   0.07920   0.89532   -0.40580   0.18433   0.07920   0.89532   -0.40580   0.18433   102.18201
216   0.07924   0.89489   -0.40687   0.18403   0.07924   0.89489   -0.40687   0.18403   102.07825
217   0.07931   0.89529   -0.40614   0.18357   0.07931   0.89529   -0.40614   0.18357   102.13318
218   0.07918   0.89538   -0.40556   0.18409   0.07918   0.89538   -0.40556   0.18409   102.20642
219   0.07922   0.89499   -0.40660   0.18418   0.07922   0.89499   -0.40660   0.18418   102.20642
220   0.07934   0.89514   -0.40596   0.18436   0.07934   0.89514   -0.40596   0.18436   102.08740
221   0.07933   0.89532   -0.40553   0.18464   0.07933   0.89532   -0.40553   0.18464   102.13318
222   0.07924   0.89526   -0.40611   0.18394   0.07924   0.89526   -0.40611   0.18394   102.20642
223   0.07930   0.89520   -0.40614   0.18458   0.07930   0.89520   -0.40614   0.18458   102.14539
224   0.07941   0.89517   -0.40580   0.18494   0.07941   0.89517   -0.40580   0.18494   102.07520
225   0.07933   0.89523   -0.40648   0.18360   0.07933   0.89523   -0.40648   0.18360   102.14539
226   0.07933   0.89492   -0.40684   0.18354   0.07933   0.89492   -0.40684   0.18354   102.26135
227   0.07944   0.89566   -0.40501   0.18448   0.07944   0.89566   -0.40501   0.18448   102.11792
228   0.07938   0.89526   -0.40577   0.18433   0.07938   0.89526   -0.40577   0.18433   102.07520
229   0.07918   0.89505   -0.40629   0.18458   0.07918   0.89505   -0.40629   0.18458   102.18506
230   0.07919   0.89550   -0.40541   0.18409   0.07919   0.89550   -0.40541   0.18409   102.19421
231   0.07935   0.89569   -0.40513   0.18375   0.07935   0.89569   -0.40513   0.18375   102.10876
232   0.07930   0.89511   -0.40577   0.18473   0.07930   0.89511   -0.40577   0.18473   102.13318
233   0.07925   0.89529   -0.40593   0.18464   0.07925   0.89529   -0.40593   0.18464   102.15759
234   0.07926   0.89547   -0.40556   0.18403   0.07926   0.89547   -0.40556   0.18403   102.15759
235   0.07933   0.89547   -0.40526   0.18436   0.07933   0.89547   -0.40526   0.18436   102.08740
236   0.07930   0.89541   -0.40574   0.18445   0.07930   0.89541   -0.40574   0.18445   102.13318
237   0.07930   0.89471   -0.40687   0.18464   0.07930   0.89471   -0.40687   0.18464   102.16980
238   0.07934   0.89486   -0.40699   0.18384   0.07934   0.89486   -0.40699   0.18384   102.16675
239   0.07935   0.89514   -0.40602   0.18467   0.07935   0.89514   -0.40602   0.18467   102.13318
240   0.07932   0.89523   -0.40574   0.18448   0.07932   0.89523   -0.40574   0.18448   102.20337
241   0.07927   0.89511   -0.40605   0.18534   0.07927   0.89511   -0.40605   0.18534   102.16980
242   0.07930   0.89483   -0.40608   0.18595   0.07930   0.89483   -0.40608   0.18595   102.11182
243   0.07921   0.89511   -0.40602   0.18506   0.07921   0.89511   -0.40602   0.18506   102.16064
244   0.07917   0.89480   -0.40672   0.18451   0.07917   0.89480   -0.40672   0.18451   102.18506
245   0.07900   0.89505   -0.40645   0.18363   0.07900   0.89505   -0.40645   0.18363   102.14233
246   0.07915   0.89560   -0.40532   0.18418   0.07915   0.89560   -0.40532   0.18418   102.10266
247   0.07933   0.89550   -0.40516   0.18430   0.07933   0.89550   -0.40516   0.18430   102.14539
248   0.07926   0.89566   -0.40516   0.18397   0.07926   0.89566   -0.40516   0.18397   102.20337
249   0.07924   0.89514   -0.40565   0.18552   0.07924   0.89514   -0.40565   0.18552   102.10266
250   0.07926   0.89523   -0.40629   0.18375   0.07926   0.89523   -0.40629   0.18375   102.09045
251   0.07932   0.89526   -0.40620   0.18378   0.07932   0.89526   -0.40620   0.18378   102.19116
252   0.07927   0.89535   -0.40559   0.18451   0.07927   0.89535   -0.40559   0.18451   102.22778
253   0.07933   0.89526   -0.40544   0.18531   0.07933   0.89526   -0.40544   0.18531   102.09961
254   0.07932   0.89526   -0.40602   0.18390   0.07932   0.89526   -0.40602   0.18390   102.08740
255   0.07922   0.89514   -0.40593   0.18516   0.07922   0.89514   -0.40593   0.18516   102.19421
256   0.07920   0.89520   -0.40550   0.18506   0.07920   0.89520   -0.40550   0.18506   102.23083
257   0.07925   0.89538   -0.40547   0.18442   0.07925   0.89538   -0.40547   0.18442   102.07825
258   0.07932   0.89517   -0.40587   0.18516   0.07932   0.89517   -0.40587   0.18516   102.07520
259   0.07919   0.89526   -0.40617   0.18378   0.07919   0.89526   -0.40617   0.18378   102.21863
260   0.07922   0.89517   -0.40577   0.18451   0.07922   0.89517   -0.40577   0.18451   102.16980
261   0.07942   0.89456   -0.40718   0.18497   0.07942   0.89456   -0.40718   0.18497   102.06299
262   0.07940   0.89511   -0.40635   0.18403   0.07940   0.89511   -0.40635   0.18403   102.12097
263   0.07930   0.89520   -0.40587   0.18506   0.07930   0.89520   -0.40587   0.18506   102.22778
264   0.07931   0.89550   -0.40489   0.18583   0.07931   0.89550   -0.40489   0.18583   102.17896
265   0.07943   0.89550   -0.40504   0.18519   0.07943   0.89550   -0.40504   0.18519   102.08435
266   0.07940   0.89535   -0.40541   0.18482   0.07940   0.89535   -0.40541   0.18482   102.12097
267   0.07936   0.89532   -0.40571   0.18451   0.07936   0.89532   -0.40571   0.18451   102.19116
268   0.07934   0.89575   -0.40449   0.18528   0.07934   0.89575   -0.40449   0.18528   102.12097
269   0.07934   0.89566   -0.40498   0.18439   0.07934   0.89566   -0.40498   0.18439   102.10876
270   0.07931   0.89560   -0.40504   0.18470   0.07931   0.89560   -0.40504   0.18470   102.14539
271   0.07924   0.89572   -0.40455   0.18525   0.07924   0.89572   -0.40455   0.18525   102.19421
272   0.07933   0.89535   -0.40498   0.18546   0.07933   0.89535   -0.40498   0.18546   102.09961
273   0.07926   0.89526   -0.40596   0.18445   0.07926   0.89526   -0.40596   0.18445   102.16980
274   0.07929   0.89575   -0.40468   0.18485   0.07929   0.89575   -0.40468   0.18485   102.18201
275   0.07935   0.89550   -0.40513   0.18485   0.07935   0.89550   -0.40513   0.18485   102.09961
276   0.07933   0.89557   -0.40468   0.18604   0.07933   0.89557   -0.40468   0.18604   102.09961
277   0.07928   0.89550   -0.40532   0.18436   0.07928   0.89550   -0.40532   0.18436   102.16980
278   0.07931   0.89492   -0.40638   0.18503   0.07931   0.89492   -0.40638   0.18503   102.19116
279   0.07943   0.89514   -0.40559   0.18546   0.07943   0.89514   -0.40559   0.18546   102.09656
280   0.07937   0.89535   -0.40541   0.18549   0.07937   0.89535   -0.40541   0.18549   102.09656
281   0.07932   0.89514   -0.40614   0.18442   0.07932   0.89514   -0.40614   0.18442   102.19116
282   0.07931   0.89538   -0.40498   0.18610   0.07931   0.89538   -0.40498   0.18610   102.19116
283   0.07936   0.89523   -0.40495   0.18595   0.07936   0.89523   -0.40495   0.18595   102.06299
284   0.07925   0.89541   -0.40513   0.18555   0.07925   0.89541   -0.40513   0.18555   102.11182
285   0.07919   0.89520   -0.40587   0.18418   0.07919   0.89520   -0.40587   0.18418   102.25220
286   0.07928   0.89557   -0.40480   0.18546   0.07928   0.89557   -0.40480   0.18546   102.09961
287   0.07935   0.89563   -0.40486   0.18497   0.07935   0.89563   -0.40486   0.18497   102.05078
288   0.07931   0.89517   -0.40584   0.18482   0.07931   0.89517   -0.40584   0.18482   102.16980
289   0.07923   0.89535   -0.40526   0.18491   0.07923   0.89535   -0.40526   0.18491   102.23999
290   0.07931   0.89575   -0.40434   0.18534   0.07931   0.89575   -0.40434   0.18534   102.15759
291   0.07938   0.89590   -0.40452   0.18455   0.07938   0.89590   -0.40452   0.18455   102.06299
292   0.07933   0.89502   -0.40611   0.18470   0.07933   0.89502   -0.40611   0.18470   102.17896
293   0.07931   0.89554   -0.40483   0.18543   0.07931   0.89554   -0.40483   0.18543   102.20337
294   0.07933   0.89538   -0.40477   0.18604   0.07933   0.89538   -0.40477   0.18604   102.08740
295   0.07942   0.89554   -0.40492   0.18479   0.07942   0.89554   -0.40492   0.18479   102.06299
296   0.07930   0.89532   -0.40510   0.18561   0.07930   0.89532   -0.40510   0.18561   102.19116
297   0.07924   0.89538   -0.40471   0.18607   0.07924   0.89538   -0.40471   0.18607   102.22778
298   0.07924   0.89511   -0.40513   0.18653   0.07924   0.89511   -0.40513   0.18653   102.09045
299   0.07933   0.89544   -0.40562   0.18394   0.07933   0.89544   -0.40562   0.18394   102.11182
300   0.07928   0.89550   -0.40516   0.18497   0.07928   0.89550   -0.40516   0.18497   102.14539
301   0.07928   0.89541   -0.40486   0.18598   0.07928   0.89541   -0.40486   0.18598   102.14539
302   0.07931   0.89508   -0.40577   0.18531   0.07931   0.89508   -0.40577   0.18531   102.12402
303   0.07933   0.89563   -0.40483   0.18506   0.07933   0.89563   -0.40483   0.18506   102.11182
304   0.07931   0.89590   -0.40452   0.18479   0.07931   0.89590   -0.40452   0.18479   102.14539
305   0.07934   0.89486   -0.40632   0.18577   0.07934   0.89486   -0.40632   0.18577   102.08740
306   0.07937   0.89581   -0.40461   0.18470   0.07937   0.89581   -0.40461   0.18470   102.08740
307   0.07930   0.89511   -0.40584   0.18534   0.07930   0.89511   -0.40584   0.18534   102.19116
308   0.07936   0.89532   -0.40522   0.18543   0.07936   0.89532   -0.40522   0.18543   102.14539
309   0.07943   0.89532   -0.40547   0.18506   0.07943   0.89532   -0.40547   0.18506   102.06299
310   0.07933   0.89578   -0.40449   0.18467   0.07933   0.89578   -0.40449   0.18467   102.13318
311   0.07926   0.89584   -0.40446   0.18473   0.07926   0.89584   -0.40446   0.18473   102.16980
312   0.07929   0.89563   -0.40474   0.18525   0.07929   0.89563   -0.40474   0.18525   102.08740
313   0.07935   0.89541   -0.40507   0.18543   0.07935   0.89541   -0.40507   0.18543   102.08740
314   0.07929   0.89572   -0.40492   0.18451   0.07929   0.89572   -0.40492   0.18451   102.14539
315   0.07926   0.89587   -0.40403   0.18534   0.07926   0.89587   -0.40403   0.18534   102.21558
316   0.07932   0.89532   -0.40516   0.18555   0.07932   0.89532   -0.40516   0.18555   102.09961
317   0.07937   0.89538   -0.40507   0.18574   0.07937   0.89538   -0.40507   0.18574   102.06299
318   0.07929   0.89557   -0.40486   0.18519   0.07929   0.89557   -0.40486   0.18519   102.19116
319   0.07925   0.89560   -0.40471   0.18525   0.07925   0.89560   -0.40471   0.18525   102.18201
320   0.07942   0.89557   -0.40486   0.18546   0.07942   0.89557   -0.40486   0.18546   102.06299
321   0.07936   0.89541   -0.40522   0.18491   0.07936   0.89541   -0.40522   0.18491   102.08740
322   0.07934   0.89554   -0.40495   0.18503   0.07934   0.89554   -0.40495   0.18503   102.20337
323   0.07931   0.89590   -0.40428   0.18500   0.07931   0.89590   -0.40428   0.18500   102.19116
324   0.07935   0.89526   -0.40526   0.18592   0.07935   0.89526   -0.40526   0.18592   102.05078
325   0.07926   0.89560   -0.40495   0.18464   0.07926   0.89560   -0.40495   0.18464   102.13623
326   0.07900   0.89566   -0.40532   0.18369   0.07900   0.89566   -0.40532   0.18369   102.21252
327   0.07909   0.89535   -0.40498   0.18577   0.07909   0.89535   -0.40498   0.18577   102.19727
328   0.07940   0.89538   -0.40556   0.18482   0.07940   0.89538   -0.40556   0.18482   102.07520
329   0.07940   0.89514   -0.40614   0.18455   0.07940   0.89514   -0.40614   0.18455   102.12097
330   0.07925   0.89550   -0.40495   0.18525   0.07925   0.89550   -0.40495   0.18525   102.19421
331   0.07926   0.89590   -0.40403   0.18540   0.07926   0.89590   -0.40403   0.18540   102.15759
332   0.07939   0.89572   -0.40449   0.18543   0.07939   0.89572   -0.40449   0.18543   102.10876
333   0.07940   0.89547   -0.40507   0.18473   0.07940   0.89547   -0.40507   0.18473   102.14233
334   0.07938   0.89581   -0.40431   0.18546   0.07938   0.89581   -0.40431   0.18546   102.16675
335   0.07937   0.89517   -0.40559   0.18574   0.07937   0.89517   -0.40559   0.18574   102.12097
336   0.07938   0.89532   -0.40550   0.18473   0.07938   0.89532   -0.40550   0.18473   102.09656
337   0.07936   0.89505   -0.40593   0.18497   0.07936   0.89505   -0.40593   0.18497   102.15454
338   0.07933   0.89569   -0.40526   0.18384   0.07933   0.89569   -0.40526   0.18384   102.16675
339   0.07928   0.89557   -0.40477   0.18528   0.07928   0.89557   -0.40477   0.18528   102.13623
340   0.07924   0.89520   -0.40626   0.18400   0.07924   0.89520   -0.40626   0.18400   102.14844
341   0.07925   0.89520   -0.40587   0.18455   0.07925   0.89520   -0.40587   0.18455   102.15759
342   0.07927   0.89578   -0.40486   0.18458   0.07927   0.89578   -0.40486   0.18458   102.16980
343   0.07931   0.89572   -0.40458   0.18516   0.07931   0.89572   -0.40458   0.18516   102.12402
344   0.07928   0.89517   -0.40608   0.18406   0.07928   0.89517   -0.40608   0.18406   102.16980
345   0.07941   0.89505   -0.40648   0.18400   0.07941   0.89505   -0.40648   0.18400   102.21252
346   0.07948   0.89572   -0.40495   0.18448   0.07948   0.89572   -0.40495   0.18448   102.07214
347   0.07928   0.89529   -0.40507   0.18589   0.07928   0.89529   -0.40507   0.18589   102.11182
348   0.07922   0.89575   -0.40474   0.18491   0.07922   0.89575   -0.40474   0.18491   102.19421
349   0.07936   0.89560   -0.40443   0.18571   0.07936   0.89560   -0.40443   0.18571   102.15454
350   0.07951   0.89520   -0.40547   0.18546   0.07951   0.89520   -0.40547   0.18546   102.05994
351   0.07936   0.89492   -0.40635   0.18491   0.07936   0.89492   -0.40635   0.18491   102.16675
352   0.07919   0.89538   -0.40532   0.18537   0.07919   0.89538   -0.40532   0.18537   102.21863
353   0.07918   0.89499   -0.40605   0.18482   0.07918   0.89499   -0.40605   0.18482   102.16064
354   0.07934   0.89511   -0.40541   0.18592   0.07934   0.89511   -0.40541   0.18592   102.06299
355   0.07931   0.89520   -0.40602   0.18491   0.07931   0.89520   -0.40602   0.18491   102.09961
356   0.07923   0.89523   -0.40562   0.18473   0.07923   0.89523   -0.40562   0.18473   102.21558
357   0.07933   0.89535   -0.40519   0.18488   0.07933   0.89535   -0.40519   0.18488   102.08740
358   0.07934   0.89554   -0.40501   0.18476   0.07934   0.89554   -0.40501   0.18476   102.05383
359   0.07932   0.89535   -0.40562   0.18439   0.07932   0.89535   -0.40562   0.18439   102.16980
360   0.07928   0.89520   -0.40556   0.18525   0.07928   0.89520   -0.40556   0.18525   102.22778
361   0.07943   0.89569   -0.40468   0.18473   0.07943   0.89569   -0.40468   0.18473   102.09656
362   0.07953   0.89523   -0.40574   0.18482   0.07953   0.89523   -0.40574   0.18482   102.09351
363   0.07922   0.89544   -0.40492   0.18601   0.07922   0.89544   -0.40492   0.18601   102.13623
364   0.07904   0.89569   -0.40529   0.18375   0.07904   0.89569   -0.40529   0.18375   102.17590
365   0.07935   0.89529   -0.40556   0.18473   0.07935   0.89529   -0.40556   0.18473   102.07520
366   0.07938   0.89468   -0.40648   0.18540   0.07938   0.89468   -0.40648   0.18540   102.14233
367   0.07914   0.89581   -0.40510   0.18305   0.07914   0.89581   -0.40510   0.18305   102.13928
368   0.07914   0.89560   -0.40440   0.18577   0.07914   0.89560   -0.40440   0.18577   102.12708
369   0.07932   0.89563   -0.40522   0.18461   0.07932   0.89563   -0.40522   0.18461   102.09961
370   0.07931   0.89563   -0.40504   0.18494   0.07931   0.89563   -0.40504   0.18494   102.08740
371   0.07922   0.89547   -0.40541   0.18427   0.07922   0.89547   -0.40541   0.18427   102.20642
372   0.07926   0.89587   -0.40468   0.18439   0.07926   0.89587   -0.40468   0.18439   102.09961
373   0.07935   0.89560   -0.40492   0.18470   0.07935   0.89560   -0.40492   0.18470   102.08740
374   0.07933   0.89578   -0.40468   0.18448   0.07933   0.89578   -0.40468   0.18448   102.12097
375   0.07930   0.89590   -0.40437   0.18439   0.07930   0.89590   -0.40437   0.18439   102.16980
376   0.07933   0.89572   -0.40498   0.18458   0.07933   0.89572   -0.40498   0.18458   102.06299
377   0.07933   0.89578   -0.40461   0.18482   0.07933   0.89578   -0.40461   0.18482   102.13318
378   0.07929   0.89538   -0.40599   0.18363   0.07929   0.89538   -0.40599   0.18363   102.16980
379   0.07927   0.89544   -0.40495   0.18540   0.07927   0.89544   -0.40495   0.18540   102.09961
380   0.07924   0.89535   -0.40547   0.18497   0.07924   0.89535   -0.40547   0.18497   102.07825
381   0.07919   0.89526   -0.40593   0.18406   0.07919   0.89526   -0.40593   0.18406   102.17285
382   0.07920   0.89508   -0.40584   0.18516   0.07920   0.89508   -0.40584   0.18516   102.20642
383   0.07928   0.89544   -0.40516   0.18488   0.07928   0.89544   -0.40516   0.18488   102.08740
384   0.07930   0.89541   -0.40513   0.18537   0.07930   0.89541   -0.40513   0.18537   102.08740
385   0.07922   0.89523   -0.40638   0.18314   0.07922   0.89523   -0.40638   0.18314   102.21863
386   0.07922   0.89526   -0.40544   0.18519   0.07922   0.89526   -0.40544   0.18519   102.20642
387   0.07933   0.89590   -0.40397   0.18555   0.07933   0.89590   -0.40397   0.18555   102.01721
388   0.07931   0.89538   -0.40526   0.18516   0.07931   0.89538   -0.40526   0.18516   102.13318
389   0.07925   0.89544   -0.40532   0.18525   0.07925   0.89544   -0.40532   0.18525   102.20642
390   0.07927   0.89514   -0.40571   0.18500   0.07927   0.89514   -0.40571   0.18500   102.18201
391   0.07938   0.89544   -0.40519   0.18513   0.07938   0.89544   -0.40519   0.18513   102.08740
392   0.07932   0.89520   -0.40614   0.18421   0.07932   0.89520   -0.40614   0.18421   102.13318
393   0.07919   0.89535   -0.40553   0.18448   0.07919   0.89535   -0.40553   0.18448   102.23083
394   0.07922   0.89523   -0.40571   0.18491   0.07922   0.89523   -0.40571   0.18491   102.14844
395   0.07925   0.89499   -0.40660   0.18394   0.07925   0.89499   -0.40660   0.18394   102.07825
396   0.07921   0.89468   -0.40706   0.18442   0.07921   0.89468   -0.40706   0.18442   102.14844
397   0.07915   0.89480   -0.40635   0.18513   0.07915   0.89480   -0.40635   0.18513   102.24304
398   0.07931   0.89544   -0.40495   0.18513   0.07931   0.89544   -0.40495   0.18513   102.09961
399   0.07929   0.89520   -0.40590   0.18476   0.07929   0.89520   -0.40590   0.18476   102.07825
400   0.07926   0.89575   -0.40449   0.18552   0.07926   0.89575   -0.40449   0.18552   102.18201
401   0.07923   0.89523   -0.40568   0.18488   0.07923   0.89523   -0.40568   0.18488   102.16064
402   0.07931   0.89496   -0.40587   0.18574   0.07931   0.89496   -0.40587   0.18574   102.13318
403   0.07934   0.89496   -0.40623   0.18467   0.07934   0.89496   -0.40623   0.18467   102.13318
404   0.07931   0.89563   -0.40498   0.18430   0.07931   0.89563   -0.40498   0.18430   102.16980
405   0.07934   0.89499   -0.40587   0.18555   0.07934   0.89499   -0.40587   0.18555   102.12097
406   0.07932   0.89514   -0.40590   0.18497   0.07932   0.89514   -0.40590   0.18497   102.09961
407   0.07925   0.89532   -0.40541   0.18516   0.07925   0.89532   -0.40541   0.18516   102.13623
408   0.07916   0.89520   -0.40617   0.18394   0.07916   0.89520   -0.40617   0.18394   102.18506
409   0.07926   0.89480   -0.40617   0.18555   0.07926   0.89480   -0.40617   0.18555   102.11182
410   0.07925   0.89526   -0.40550   0.18528   0.07925   0.89526   -0.40550   0.18528   102.09961
411   0.07922   0.89508   -0.40638   0.18390   0.07922   0.89508   -0.40638   0.18390   102.19421
412   0.07924   0.89480   -0.40626   0.18619   0.07924   0.89480   -0.40626   0.18619   102.15759
413   0.07932   0.89520   -0.40577   0.18503   0.07932   0.89520   -0.40577   0.18503   102.04163
414   0.07932   0.89486   -0.40669   0.18473   0.07932   0.89486   -0.40669   0.18473   102.13318
415   0.07925   0.89441   -0.40843   0.18308   0.07925   0.89441   -0.40843   0.18308   102.20642
416   0.07932   0.89474   -0.40626   0.18604   0.07932   0.89474   -0.40626   0.18604   102.13318
417   0.07937   0.89502   -0.40623   0.18451   0.07937   0.89502   -0.40623   0.18451   102.05078
418   0.07935   0.89471   -0.40696   0.18528   0.07935   0.89471   -0.40696   0.18528   102.12097
419   0.07925   0.89447   -0.40721   0.18509   0.07925   0.89447   -0.40721   0.18509   102.26135
420   0.07930   0.89480   -0.40587   0.18650   0.07930   0.89480   -0.40587   0.18650   102.12402
421   0.07933   0.89468   -0.40684   0.18513   0.07933   0.89468   -0.40684   0.18513   102.04163
422   0.07917   0.89459   -0.40675   0.18583   0.07917   0.89459   -0.40675   0.18583   102.18506
423   0.07921   0.89459   -0.40757   0.18406   0.07921   0.89459   -0.40757   0.18406   102.21863
424   0.07928   0.89492   -0.40599   0.18571   0.07928   0.89492   -0.40599   0.18571   102.08740
425   0.07930   0.89526   -0.40596   0.18455   0.07930   0.89526   -0.40596   0.18455   102.11182
426   0.07931   0.89526   -0.40571   0.18467   0.07931   0.89526   -0.40571   0.18467   102.19116
427   0.07934   0.89468   -0.40699   0.18473   0.07934   0.89468   -0.40699   0.18473   102.16675
428   0.07941   0.89456   -0.40715   0.18509   0.07941   0.89456   -0.40715   0.18509   102.07520
429   0.07930   0.89502   -0.40623   0.18436   0.07930   0.89502   -0.40623   0.18436   102.14539
430   0.07928   0.89465   -0.40724   0.18424   0.07928   0.89465   -0.40724   0.18424   102.21558
431   0.07935   0.89486   -0.40672   0.18485   0.07935   0.89486   -0.40672   0.18485   102.17896
432   0.07935   0.89441   -0.40748   0.18491   0.07935   0.89441   -0.40748   0.18491   102.12097
433   0.07930   0.89450   -0.40690   0.18583   0.07930   0.89450   -0.40690   0.18583   102.13318
434   0.07924   0.89431   -0.40773   0.18531   0.07924   0.89431   -0.40773   0.18531   102.22778
435   0.07921   0.89450   -0.40703   0.18534   0.07921   0.89450   -0.40703   0.18534   102.17285
436   0.07921   0.89523   -0.40562   0.18482   0.07921   0.89523   -0.40562   0.18482   102.12402
437   0.07923   0.89480   -0.40669   0.18485   0.07923   0.89480   -0.40669   0.18485   102.12402
438   0.07923   0.89483   -0.40681   0.18482   0.07923   0.89483   -0.40681   0.18482   102.16064
439   0.07932   0.89413   -0.40809   0.18464   0.07932   0.89413   -0.40809   0.18464   102.09961
440   0.07928   0.89450   -0.40767   0.18448   0.07928   0.89450   -0.40767   0.18448   102.13623
441   0.07931   0.89477   -0.40730   0.18381   0.07931   0.89477   -0.40730   0.18381   102.16980
442   0.07928   0.89425   -0.40751   0.18531   0.07928   0.89425   -0.40751   0.18531   102.16980
443   0.07932   0.89502   -0.40547   0.18665   0.07932   0.89502   -0.40547   0.18665   102.08740
444   0.07929   0.89428   -0.40785   0.18448   0.07929   0.89428   -0.40785   0.18448   102.19116
445   0.07901   0.89453   -0.40721   0.18503   0.07901   0.89453   -0.40721   0.18503   102.17590
446   0.07919   0.89459   -0.40736   0.18442   0.07919   0.89459   -0.40736   0.18442   102.12708
447   0.07937   0.89468   -0.40681   0.18476   0.07937   0.89468   -0.40681   0.18476   102.15454
448   0.07930   0.89480   -0.40657   0.18522   0.07930   0.89480   -0.40657   0.18522   102.16980
449   0.07913   0.89489   -0.40675   0.18433   0.07913   0.89489   -0.40675   0.18433   102.15149
450   0.07922   0.89441   -0.40764   0.18455   0.07922   0.89441   -0.40764   0.18455   102.04468
451   0.07925   0.89404   -0.40825   0.18485   0.07925   0.89404   -0.40825   0.18485   102.12402
452   0.07921   0.89434   -0.40764   0.18509   0.07921   0.89434   -0.40764   0.18509   102.20642
453   0.07922   0.89477   -0.40669   0.18479   0.07922   0.89477   -0.40669   0.18479   102.19421
454   0.07930   0.89480   -0.40617   0.18571   0.07930   0.89480   -0.40617   0.18571   102.06604
455   0.07929   0.89438   -0.40797   0.18448   0.07929   0.89438   -0.40797   0.18448   102.12402
456   0.07924   0.89483   -0.40709   0.18394   0.07924   0.89483   -0.40709   0.18394   102.21558
457   0.07934   0.89459   -0.40696   0.18506   0.07934   0.89459   -0.40696   0.18506   102.12097
458   0.07937   0.89459   -0.40736   0.18461   0.07937   0.89459   -0.40736   0.18461   102.05078
459   0.07931   0.89477   -0.40715   0.18397   0.07931   0.89477   -0.40715   0.18397   102.16980
460   0.07926   0.89480   -0.40690   0.18442   0.07926   0.89480   -0.40690   0.18442   102.21558
461   0.07933   0.89529   -0.40498   0.18577   0.07933   0.89529   -0.40498   0.18577   102.15759
462   0.07942   0.89492   -0.40678   0.18445   0.07942   0.89492   -0.40678   0.18445   102.06299
463   0.07922   0.89526   -0.40602   0.18418   0.07922   0.89526   -0.40602   0.18418   102.17285
464   0.07922   0.89483   -0.40733   0.18317   0.07922   0.89483   -0.40733   0.18317   102.20642
465   0.07931   0.89462   -0.40718   0.18461   0.07931   0.89462   -0.40718   0.18461   102.11182
466   0.07936   0.89514   -0.40602   0.18497   0.07936   0.89514   -0.40602   0.18497   102.12097
467   0.07934   0.89474   -0.40687   0.18497   0.07934   0.89474   -0.40687   0.18497   102.19116
468   0.07927   0.89465   -0.40703   0.18513   0.07927   0.89465   -0.40703   0.18513   102.21558
469   0.07931   0.89499   -0.40638   0.18494   0.07931   0.89499   -0.40638   0.18494   102.13318
470   0.07938   0.89422   -0.40815   0.18412   0.07938   0.89422   -0.40815   0.18412   102.15454
471   0.07932   0.89425   -0.40773   0.18525   0.07932   0.89425   -0.40773   0.18525   102.23694
472   0.07931   0.89529   -0.40535   0.18528   0.07931   0.89529   -0.40535   0.18528   102.14539
473   0.07935   0.89502   -0.40632   0.18485   0.07935   0.89502   -0.40632   0.18485   102.09961
474   0.07938   0.89505   -0.40626   0.18473   0.07938   0.89505   -0.40626   0.18473   102.12097
475   0.07930   0.89486   -0.40666   0.18430   0.07930   0.89486   -0.40666   0.18430   102.20337
476   0.07932   0.89523   -0.40587   0.18458   0.07932   0.89523   -0.40587   0.18458   102.07520
477   0.07922   0.89499   -0.40617   0.18531   0.07922   0.89499   -0.40617   0.18531   102.12402
478   0.07923   0.89517   -0.40571   0.18513   0.07923   0.89517   -0.40571   0.18513   102.18201
479   0.07925   0.89508   -0.40617   0.18500   0.07925   0.89508   -0.40617   0.18500   102.15759
480   0.07933   0.89489   -0.40657   0.18455   0.07933   0.89489   -0.40657   0.18455   102.06299
481   0.07927   0.89508   -0.40577   0.18531   0.07927   0.89508   -0.40577   0.18531   102.16980
482   0.07926   0.89477   -0.40660   0.18503   0.07926   0.89477   -0.40660   0.18503   102.19421
483   0.07936   0.89511   -0.40593   0.18491   0.07936   0.89511   -0.40593   0.18491   102.09961
484   0.07937   0.89468   -0.40724   0.18433   0.07937   0.89468   -0.40724   0.18433   102.08740
485   0.07933   0.89511   -0.40587   0.18494   0.07933   0.89511   -0.40587   0.18494   102.16980
486   0.07930   0.89514   -0.40654   0.18381   0.07930   0.89514   -0.40654   0.18381   102.18201
487   0.07937   0.89523   -0.40516   0.18604   0.07937   0.89523   -0.40516   0.18604   102.12097
488   0.07934   0.89480   -0.40641   0.18531   0.07934   0.89480   -0.40641   0.18531   102.09961
489   0.07927   0.89502   -0.40660   0.18384   0.07927   0.89502   -0.40660   0.18384   102.18201
490   0.07916   0.89499   -0.40648   0.18470   0.07916   0.89499   -0.40648   0.18470   102.23083
491   0.07928   0.89544   -0.40495   0.18577   0.07928   0.89544   -0.40495   0.18577   102.07825
492   0.07932   0.89523   -0.40605   0.18409   0.07932   0.89523   -0.40605   0.18409   102.09961
493   0.07920   0.89523   -0.40568   0.18473   0.07920   0.89523   -0.40568   0.18473   102.20642
494   0.07927   0.89480   -0.40736   0.18363   0.07927   0.89480   -0.40736   0.18363   102.14539
495   0.07935   0.89486   -0.40675   0.18430   0.07935   0.89486   -0.40675   0.18430   102.07520
496   0.07934   0.89496   -0.40626   0.18500   0.07934   0.89496   -0.40626   0.18500   102.09961
497   0.07924   0.89541   -0.40538   0.18494   0.07924   0.89541   -0.40538   0.18494   102.20642
498   0.07931   0.89544   -0.40556   0.18412   0.07931   0.89544   -0.40556   0.18412   102.15759
499   0.07939   0.89572   -0.40504   0.18421   0.07939   0.89572   -0.40504   0.18421   102.09656
500   0.07939   0.89526   -0.40638   0.18348   0.07939   0.89526   -0.40638   0.18348   102.12097
501   0.07932   0.89544   -0.40568   0.18394   0.07932   0.89544   -0.40568   0.18394   102.17896
502   0.07931   0.89502   -0.40638   0.18400   0.07931   0.89502   -0.40638   0.18400   102.14539
503   0.07932   0.89483   -0.40693   0.18384   0.07932   0.89483   -0.40693   0.18384   102.14539
504   0.07924   0.89526   -0.40681   0.18192   0.07924   0.89526   -0.40681   0.18192   102.13623
505   0.07923   0.89535   -0.40645   0.18274   0.07923   0.89535   -0.40645   0.18274   102.19421
506   0.07930   0.89532   -0.40544   0.18485   0.07930   0.89532   -0.40544   0.18485   102.09961
507   0.07929   0.89532   -0.40522   0.18522   0.07929   0.89532   -0.40522   0.18522   102.11182
508   0.07929   0.89544   -0.40574   0.18363   0.07929   0.89544   -0.40574   0.18363   102.15759
509   0.07927   0.89526   -0.40522   0.18571   0.07927   0.89526   -0.40522   0.18571   102.14539
510   0.07937   0.89496   -0.40645   0.18418   0.07937   0.89496   -0.40645   0.18418   102.09656
511   0.07932   0.89541   -0.40544   0.18439   0.07932   0.89541   -0.40544   0.18439   102.14539
512   0.07931   0.89486   -0.40660   0.18497   0.07931   0.89486   -0.40660   0.18497   102.19116
513   0.07935   0.89483   -0.40632   0.18525   0.07935   0.89483   -0.40632   0.18525   102.13318
514   0.07935   0.89529   -0.40553   0.18482   0.07935   0.89529   -0.40553   0.18482   102.10876
515   0.07930   0.89532   -0.40584   0.18415   0.07930   0.89532   -0.40584   0.18415   102.19116
516   0.07931   0.89535   -0.40580   0.18412   0.07931   0.89535   -0.40580   0.18412   102.16980
517   0.07935   0.89529   -0.40556   0.18503   0.07935   0.89529   -0.40556   0.18503   102.07520
518   0.07920   0.89560   -0.40504   0.18424   0.07920   0.89560   -0.40504   0.18424   102.12708
519   0.07921   0.89535   -0.40532   0.18543   0.07921   0.89535   -0.40532   0.18543   102.20642
520   0.07924   0.89502   -0.40660   0.18400   0.07924   0.89502   -0.40660   0.18400   102.16980
521   0.07934   0.89511   -0.40562   0.18549   0.07934   0.89511   -0.40562   0.18549   102.05383
522   0.07931   0.89544   -0.40574   0.18445   0.07931   0.89544   -0.40574   0.18445   102.12402
523   0.07926   0.89505   -0.40663   0.18381   0.07926   0.89505   -0.40663   0.18381   102.23999
524   0.07932   0.89529   -0.40608   0.18360   0.07932   0.89529   -0.40608   0.18360   102.14539
525   0.07935   0.89496   -0.40617   0.18525   0.07935   0.89496   -0.40617   0.18525   102.01721
526   0.07915   0.89517   -0.40660   0.18314   0.07915   0.89517   -0.40660   0.18314   102.18506
527   0.07914   0.89505   -0.40699   0.18311   0.07914   0.89505   -0.40699   0.18311   102.23083
528   0.07940   0.89514   -0.40599   0.18439   0.07940   0.89514   -0.40599   0.18439   102.12097
529   0.07945   0.89477   -0.40699   0.18451   0.07945   0.89477   -0.40699   0.18451   102.08435
530   0.07927   0.89492   -0.40629   0.18458   0.07927   0.89492   -0.40629   0.18458   102.18201
531   0.07918   0.89508   -0.40675   0.18354   0.07918   0.89508   -0.40675   0.18354   102.20642
532   0.07924   0.89480   -0.40684   0.18464   0.07924   0.89480   -0.40684   0.18464   102.12402
533   0.07934   0.89499   -0.40635   0.18506   0.07934   0.89499   -0.40635   0.18506   102.12097
534   0.07924   0.89508   -0.40645   0.18412   0.07924   0.89508   -0.40645   0.18412   102.23999
535   0.07931   0.89587   -0.40458   0.18479   0.07931   0.89587   -0.40458   0.18479   102.13318
536   0.07930   0.89535   -0.40516   0.18525   0.07930   0.89535   -0.40516   0.18525   102.12402
537   0.07934   0.89532   -0.40571   0.18473   0.07934   0.89532   -0.40571   0.18473   102.08740
538   0.07930   0.89520   -0.40596   0.18439   0.07930   0.89520   -0.40596   0.18439   102.18201
539   0.07932   0.89560   -0.40535   0.18424   0.07932   0.89560   -0.40535   0.18424   102.15759
540   0.07936   0.89496   -0.40638   0.18461   0.07936   0.89496   -0.40638   0.18461   102.12097
541   0.07931   0.89499   -0.40675   0.18394   0.07931   0.89499   -0.40675   0.18394   102.14539
542   0.07935   0.89547   -0.40522   0.18467   0.07935   0.89547   -0.40522   0.18467   102.17896
543   0.07938   0.89520   -0.40608   0.18409   0.07938   0.89520   -0.40608   0.18409   102.15454
544   0.07932   0.89541   -0.40526   0.18525   0.07932   0.89541   -0.40526   0.18525   102.11182
545   0.07934   0.89486   -0.40641   0.18476   0.07934   0.89486   -0.40641   0.18476   102.17896
546   0.07935   0.89569   -0.40495   0.18430   0.07935   0.89569   -0.40495   0.18430   102.12097
547   0.07925   0.89538   -0.40541   0.18525   0.07925   0.89538   -0.40541   0.18525   102.07825
548   0.07915   0.89563   -0.40529   0.18369   0.07915   0.89563   -0.40529   0.18369   102.13928
549   0.07933   0.89514   -0.40617   0.18397   0.07933   0.89514   -0.40617   0.18397   102.20337
550   0.07943   0.89523   -0.40587   0.18476   0.07943   0.89523   -0.40587   0.18476   102.09656
551   0.07945   0.89520   -0.40584   0.18448   0.07945   0.89520   -0.40584   0.18448   102.10876
552   0.07929   0.89489   -0.40663   0.18470   0.07929   0.89489   -0.40663   0.18470   102.18201
553   0.07928   0.89489   -0.40660   0.18467   0.07928   0.89489   -0.40660   0.18467   102.22778
554   0.07936   0.89505   -0.40593   0.18513   0.07936   0.89505   -0.40593   0.18513   102.10876
555   0.07945   0.89511   -0.40651   0.18412   0.07945   0.89511   -0.40651   0.18412   102.07214
556   0.07933   0.89502   -0.40648   0.18436   0.07933   0.89502   -0.40648   0.18436   102.19116
557   0.07926   0.89496   -0.40632   0.18506   0.07926   0.89496   -0.40632   0.18506   102.22778
558   0.07935   0.89483   -0.40660   0.18506   0.07935   0.89483   -0.40660   0.18506   102.05078
559   0.07925   0.89474   -0.40657   0.18522   0.07925   0.89474   -0.40657   0.18522   102.11182
560   0.07925   0.89544   -0.40501   0.18546   0.07925   0.89544   -0.40501   0.18546   102.19421
561   0.07929   0.89520   -0.40507   0.18641   0.07929   0.89520   -0.40507   0.18641   102.15759
562   0.07945   0.89541   -0.40529   0.18509   0.07945   0.89541   -0.40529   0.18509   102.07214
563   0.07928   0.89550   -0.40535   0.18439   0.07928   0.89550   -0.40535   0.18439   102.13623
564   0.07900   0.89535   -0.40584   0.18400   0.07900   0.89535   -0.40584   0.18400   102.18811
565   0.07929   0.89550   -0.40501   0.18497   0.07929   0.89550   -0.40501   0.18497   102.13623
566   0.07943   0.89496   -0.40635   0.18500   0.07943   0.89496   -0.40635   0.18500   102.07214
567   0.07930   0.89541   -0.40526   0.18473   0.07930   0.89541   -0.40526   0.18473   102.14539
568   0.07918   0.89474   -0.40672   0.18513   0.07918   0.89474   -0.40672   0.18513   102.21863
569   0.07933   0.89560   -0.40526   0.18430   0.07933   0.89560   -0.40526   0.18430   102.09961
570   0.07936   0.89517   -0.40562   0.18525   0.07936   0.89517   -0.40562   0.18525   102.10876
571   0.07925   0.89520   -0.40571   0.18509   0.07925   0.89520   -0.40571   0.18509   102.14844
572   0.07920   0.89520   -0.40626   0.18372   0.07920   0.89520   -0.40626   0.18372   102.20642
573   0.07920   0.89483   -0.40672   0.18436   0.07920   0.89483   -0.40672   0.18436   102.14844
574   0.07930   0.89499   -0.40593   0.18497   0.07930   0.89499   -0.40593   0.18497   102.12402
575   0.07924   0.89563   -0.40437   0.18537   0.07924   0.89563   -0.40437   0.18537   102.15759
576   0.07925   0.89541   -0.40477   0.18574   0.07925   0.89541   -0.40477   0.18574   102.14844
577   0.07928   0.89560   -0.40474   0.18543   0.07928   0.89560   -0.40474   0.18543   102.11182
578   0.07928   0.89529   -0.40574   0.18455   0.07928   0.89529   -0.40574   0.18455   102.14539
579   0.07927   0.89517   -0.40568   0.18467   0.07927   0.89517   -0.40568   0.18467   102.21558
580   0.07933   0.89529   -0.40590   0.18433   0.07933   0.89529   -0.40590   0.18433   102.13318
581   0.07933   0.89526   -0.40580   0.18427   0.07933   0.89526   -0.40580   0.18427   102.11182
582   0.07932   0.89578   -0.40468   0.18448   0.07932   0.89578   -0.40468   0.18448   102.13318
583   0.07932   0.89560   -0.40516   0.18451   0.07932   0.89560   -0.40516   0.18451   102.16980
584   0.07939   0.89563   -0.40480   0.18519   0.07939   0.89563   -0.40480   0.18519   102.07520
585   0.07932   0.89557   -0.40495   0.18467   0.07932   0.89557   -0.40495   0.18467   102.11182
586   0.07923   0.89550   -0.40571   0.18403   0.07923   0.89550   -0.40571   0.18403   102.19421
587   0.07921   0.89532   -0.40559   0.18461   0.07921   0.89532   -0.40559   0.18461   102.18201
588   0.07934   0.89544   -0.40510   0.18476   0.07934   0.89544   -0.40510   0.18476   102.06299
589   0.07927   0.89523   -0.40565   0.18497   0.07927   0.89523   -0.40565   0.18497   102.14539
590   0.07924   0.89508   -0.40651   0.18378   0.07924   0.89508   -0.40651   0.18378   102.21558
591   0.07928   0.89538   -0.40550   0.18494   0.07928   0.89538   -0.40550   0.18494   102.12402
592   0.07937   0.89535   -0.40516   0.18506   0.07937   0.89535   -0.40516   0.18506   102.06299
593   0.07930   0.89544   -0.40522   0.18476   0.07930   0.89544   -0.40522   0.18476   102.16980
594   0.07928   0.89547   -0.40580   0.18378   0.07928   0.89547   -0.40580   0.18378   102.22778
595   0.07937   0.89529   -0.40513   0.18592   0.07937   0.89529   -0.40513   0.18592   102.09656
596   0.07935   0.89529   -0.40541   0.18534   0.07935   0.89529   -0.40541   0.18534   102.05078
597   0.07930   0.89526   -0.40565   0.18500   0.07930   0.89526   -0.40565   0.18500   102.22778
598   0.07927   0.89532   -0.40562   0.18500   0.07927   0.89532   -0.40562   0.18500   102.19421
599   0.07933   0.89526   -0.40522   0.18583   0.07933   0.89526   -0.40522   0.18583   102.09961
600   0.07925   0.89566   -0.40452   0.18549   0.07925   0.89566   -0.40452   0.18549   102.09961
601   0.07921   0.89517   -0.40596   0.18461   0.07921   0.89517   -0.40596   0.18461   102.17285
602   0.07927   0.89529   -0.40504   0.18598   0.07927   0.89529   -0.40504   0.18598   102.15759
603   0.07931   0.89569   -0.40446   0.18564   0.07931   0.89569   -0.40446   0.18564   102.08740
604   0.07932   0.89505   -0.40587   0.18509   0.07932   0.89505   -0.40587   0.18509   102.11182
605   0.07921   0.89538   -0.40541   0.18506   0.07921   0.89538   -0.40541   0.18506   102.23083
606   0.07936   0.89526   -0.40626   0.18375   0.07936   0.89526   -0.40626   0.18375   102.10876
607   0.07937   0.89444   -0.40745   0.18442   0.07937   0.89444   -0.40745   0.18442   102.13318
608   0.07933   0.89529   -0.40599   0.18415   0.07933   0.89529   -0.40599   0.18415   102.16675
609   0.07933   0.89541   -0.40519   0.18500   0.07933   0.89541   -0.40519   0.18500   102.16980
610   0.07939   0.89550   -0.40474   0.18571   0.07939   0.89550   -0.40474   0.18571   102.07520
611   0.07935   0.89471   -0.40712   0.18451   0.07935   0.89471   -0.40712   0.18451   102.14539
612   0.07933   0.89523   -0.40596   0.18433   0.07933   0.89523   -0.40596   0.18433   102.13318
613   0.07929   0.89499   -0.40611   0.18485   0.07929   0.89499   -0.40611   0.18485   102.12402
614   0.07927   0.89535   -0.40571   0.18442   0.07927   0.89535   -0.40571   0.18442   102.13623
615   0.07923   0.89520   -0.40629   0.18363   0.07923   0.89520   -0.40629   0.18363   102.16980
616   0.07922   0.89538   -0.40605   0.18332   0.07922   0.89538   -0.40605   0.18332   102.19421
617   0.07927   0.89471   -0.40693   0.18485   0.07927   0.89471   -0.40693   0.18485   102.13623
618   0.07932   0.89496   -0.40660   0.18461   0.07932   0.89496   -0.40660   0.18461   102.12097
619   0.07923   0.89538   -0.40568   0.18473   0.07923   0.89538   -0.40568   0.18473   102.16064
620   0.07929   0.89547   -0.40541   0.18415   0.07929   0.89547   -0.40541   0.18415   102.15759
621   0.07937   0.89514   -0.40574   0.18479   0.07937   0.89514   -0.40574   0.18479   102.06299
622   0.07935   0.89468   -0.40739   0.18397   0.07935   0.89468   -0.40739   0.18397   102.12097
623   0.07925   0.89483   -0.40632   0.18552   0.07925   0.89483   -0.40632   0.18552   102.21558
624   0.07933   0.89523   -0.40553   0.18500   0.07933   0.89523   -0.40553   0.18500   102.19116
625   0.07940   0.89535   -0.40541   0.18525   0.07940   0.89535   -0.40541   0.18525   102.07520
626   0.07938   0.89492   -0.40617   0.18494   0.07938   0.89492   -0.40617   0.18494   102.16675
627   0.07934   0.89532   -0.40519   0.18531   0.07934   0.89532   -0.40519   0.18531   102.21252
628   0.07926   0.89486   -0.40645   0.18513   0.07926   0.89486   -0.40645   0.18513   102.11182
629   0.07933   0.89544   -0.40532   0.18467   0.07933   0.89544   -0.40532   0.18467   102.02942
630   0.07922   0.89544   -0.40550   0.18433   0.07922   0.89544   -0.40550   0.18433   102.16064
631   0.07924   0.89486   -0.40663   0.18500   0.07924   0.89486   -0.40663   0.18500   102.23999
632   0.07928   0.89523   -0.40562   0.18488   0.07928   0.89523   -0.40562   0.18488   102.15759
633   0.07932   0.89483   -0.40657   0.18491   0.07932   0.89483   -0.40657   0.18491   102.09961
634   0.07931   0.89505   -0.40663   0.18397   0.07931   0.89505   -0.40663   0.18397   102.17896
635   0.07924   0.89508   -0.40611   0.18503   0.07924   0.89508   -0.40611   0.18503   102.19421
636   0.07935   0.89511   -0.40565   0.18537   0.07935   0.89511   -0.40565   0.18537   102.14539
637   0.07933   0.89526   -0.40544   0.18479   0.07933   0.89526   -0.40544   0.18479   102.12097
638   0.07928   0.89529   -0.40550   0.18531   0.07928   0.89529   -0.40550   0.18531   102.18201
639   0.07930   0.89502   -0.40602   0.18500   0.07930   0.89502   -0.40602   0.18500   102.14539
640   0.07933   0.89547   -0.40522   0.18485   0.07933   0.89547   -0.40522   0.18485   102.07520
641   0.07927   0.89538   -0.40553   0.18458   0.07927   0.89538   -0.40553   0.18458   102.11182
642   0.07918   0.89526   -0.40623   0.18345   0.07918   0.89526   -0.40623   0.18345   102.20642
643   0.07928   0.89511   -0.40577   0.18488   0.07928   0.89511   -0.40577   0.18488   102.15759
644   0.07926   0.89511   -0.40596   0.18522   0.07926   0.89511   -0.40596   0.18522   102.14844
645   0.07907   0.89541   -0.40574   0.18366   0.07907   0.89541   -0.40574   0.18366   102.15149
646   0.07913   0.89529   -0.40559   0.18442   0.07913   0.89529   -0.40559   0.18442   102.16064
647   0.07938   0.89496   -0.40623   0.18513   0.07938   0.89496   -0.40623   0.18513   102.08740
648   0.07932   0.89560   -0.40480   0.18509   0.07932   0.89560   -0.40480   0.18509   102.17896
649   0.07917   0.89538   -0.40541   0.18445   0.07917   0.89538   -0.40541   0.18445   102.20642
650   0.07927   0.89550   -0.40529   0.18415   0.07927   0.89550   -0.40529   0.18415   102.09961
651   0.07935   0.89550   -0.40443   0.18601   0.07935   0.89550   -0.40443   0.18601   102.09961
652   0.07933   0.89526   -0.40550   0.18546   0.07933   0.89526   -0.40550   0.18546   102.16980
653   0.07922   0.89496   -0.40587   0.18613   0.07922   0.89496   -0.40587   0.18613   102.23999
654   0.07928   0.89544   -0.40501   0.18534   0.07928   0.89544   -0.40501   0.18534   102.06604
655   0.07922   0.89526   -0.40556   0.18567   0.07922   0.89526   -0.40556   0.18567   102.07825
656   0.07919   0.89538   -0.40571   0.18439   0.07919   0.89538   -0.40571   0.18439   102.19421
657   0.07920   0.89514   -0.40629   0.18436   0.07920   0.89514   -0.40629   0.18436   102.21863
658   0.07930   0.89505   -0.40550   0.18613   0.07930   0.89505   -0.40550   0.18613   102.07825
659   0.07929   0.89517   -0.40574   0.18528   0.07929   0.89517   -0.40574   0.18528   102.11182
660   0.07920   0.89511   -0.40574   0.18577   0.07920   0.89511   -0.40574   0.18577   102.19421
661   0.07926   0.89517   -0.40547   0.18577   0.07926   0.89517   -0.40547   0.18577   102.18201
662   0.07943   0.89560   -0.40428   0.18595   0.07943   0.89560   -0.40428   0.18595   102.06299
663   0.07934   0.89554   -0.40477   0.18528   0.07934   0.89554   -0.40477   0.18528   102.09961
664   0.07925   0.89523   -0.40538   0.18564   0.07925   0.89523   -0.40538   0.18564   102.22778
665   0.07938   0.89520   -0.40550   0.18567   0.07938   0.89520   -0.40550   0.18567   102.15454
666   0.07944   0.89502   -0.40538   0.18650   0.07944   0.89502   -0.40538   0.18650   102.07214
667   0.07937   0.89517   -0.40571   0.18540   0.07937   0.89517   -0.40571   0.18540   102.15454
668   0.07929   0.89502   -0.40577   0.18577   0.07929   0.89502   -0.40577   0.18577   102.19116
669   0.07926   0.89505   -0.40587   0.18537   0.07926   0.89505   -0.40587   0.18537   102.13623
670   0.07935   0.89523   -0.40544   0.18537   0.07935   0.89523   -0.40544   0.18537   102.08740
671   0.07929   0.89483   -0.40654   0.18509   0.07929   0.89483   -0.40654   0.18509   102.15759
672   0.07924   0.89492   -0.40611   0.18543   0.07924   0.89492   -0.40611   0.18543   102.18201
673   0.07930   0.89523   -0.40507   0.18653   0.07930   0.89523   -0.40507   0.18653   102.09961
674   0.07932   0.89578   -0.40477   0.18424   0.07932   0.89578   -0.40477   0.18424   102.08740
675   0.07932   0.89554   -0.40471   0.18555   0.07932   0.89554   -0.40471   0.18555   102.14539
676   0.07929   0.89544   -0.40489   0.18571   0.07929   0.89544   -0.40489   0.18571   102.13623
677   0.07937   0.89535   -0.40489   0.18644   0.07937   0.89535   -0.40489   0.18644   102.07520
678   0.07929   0.89535   -0.40507   0.18580   0.07929   0.89535   -0.40507   0.18580   102.18201
679   0.07930   0.89538   -0.40522   0.18497   0.07930   0.89538   -0.40522   0.18497   102.18201
680   0.07935   0.89544   -0.40486   0.18580   0.07935   0.89544   -0.40486   0.18580   102.08740
681   0.07932   0.89550   -0.40480   0.18601   0.07932   0.89550   -0.40480   0.18601   102.08740
682   0.07923   0.89575   -0.40425   0.18513   0.07923   0.89575   -0.40425   0.18513   102.18201
683   0.07922   0.89590   -0.40391   0.18601   0.07922   0.89590   -0.40391   0.18601   102.12402
684   0.07932   0.89544   -0.40492   0.18537   0.07932   0.89544   -0.40492   0.18537   102.07520
685   0.07925   0.89557   -0.40464   0.18555   0.07925   0.89557   -0.40464   0.18555   102.12402
686   0.07923   0.89523   -0.40562   0.18531   0.07923   0.89523   -0.40562   0.18531   102.16980
687   0.07928   0.89532   -0.40501   0.18601   0.07928   0.89532   -0.40501   0.18601   102.12402
688   0.07935   0.89566   -0.40425   0.18632   0.07935   0.89566   -0.40425   0.18632   102.07520
689   0.07930   0.89563   -0.40449   0.18561   0.07930   0.89563   -0.40449   0.18561   102.12402
690   0.07924   0.89560   -0.40471   0.18540   0.07924   0.89560   -0.40471   0.18540   102.19421
691   0.07937   0.89550   -0.40526   0.18482   0.07937   0.89550   -0.40526   0.18482   102.10876
692   0.07935   0.89541   -0.40492   0.18610   0.07935   0.89541   -0.40492   0.18610   102.02942
693   0.07933   0.89511   -0.40623   0.18415   0.07933   0.89511   -0.40623   0.18415   102.16980
694   0.07926   0.89575   -0.40416   0.18564   0.07926   0.89575   -0.40416   0.18564   102.19421
695   0.07933   0.89538   -0.40550   0.18467   0.07933   0.89538   -0.40550   0.18467   102.09961
696   0.07924   0.89560   -0.40468   0.18537   0.07924   0.89560   -0.40468   0.18537   102.09045
697   0.07914   0.89581   -0.40425   0.18531   0.07914   0.89581   -0.40425   0.18531   102.19727
698   0.07923   0.89572   -0.40477   0.18503   0.07923   0.89572   -0.40477   0.18503   102.16064
699   0.07932   0.89550   -0.40501   0.18522   0.07932   0.89550   -0.40501   0.18522   102.08740
700   0.07927   0.89557   -0.40461   0.18549   0.07927   0.89557   -0.40461   0.18549   102.13623
701   0.07923   0.89499   -0.40626   0.18445   0.07923   0.89499   -0.40626   0.18445   102.20642
702   0.07930   0.89550   -0.40498   0.18516   0.07930   0.89550   -0.40498   0.18516   102.14539
703   0.07936   0.89541   -0.40535   0.18464   0.07936   0.89541   -0.40535   0.18464   102.13318
704   0.07930   0.89572   -0.40495   0.18427   0.07930   0.89572   -0.40495   0.18427   102.14539
705   0.07930   0.89572   -0.40434   0.18525   0.07930   0.89572   -0.40434   0.18525   102.18201
706   0.07932   0.89538   -0.40507   0.18549   0.07932   0.89538   -0.40507   0.18549   102.14539
707   0.07938   0.89547   -0.40532   0.18482   0.07938   0.89547   -0.40532   0.18482   102.08740
708   0.07927   0.89560   -0.40471   0.18564   0.07927   0.89560   -0.40471   0.18564   102.14539
709   0.07927   0.89520   -0.40516   0.18616   0.07927   0.89520   -0.40516   0.18616   102.13623
710   0.07923   0.89526   -0.40501   0.18577   0.07923   0.89526   -0.40501   0.18577   102.12402
711   0.07924   0.89587   -0.40452   0.18476   0.07924   0.89587   -0.40452   0.18476   102.11182
712   0.07924   0.89566   -0.40559   0.18342   0.07924   0.89566   -0.40559   0.18342   102.15759
713   0.07926   0.89572   -0.40464   0.18540   0.07926   0.89572   -0.40464   0.18540   102.11182
714   0.07931   0.89557   -0.40513   0.18470   0.07931   0.89557   -0.40513   0.18470   102.08740
715   0.07926   0.89605   -0.40413   0.18442   0.07926   0.89605   -0.40413   0.18442   102.13623
716   0.07930   0.89538   -0.40544   0.18485   0.07930   0.89538   -0.40544   0.18485   102.16980
717   0.07937   0.89538   -0.40526   0.18513   0.07937   0.89538   -0.40526   0.18513   102.08740
718   0.07933   0.89560   -0.40464   0.18595   0.07933   0.89560   -0.40464   0.18595   102.12097
719   0.07929   0.89578   -0.40486   0.18421   0.07929   0.89578   -0.40486   0.18421   102.15759
720   0.07933   0.89581   -0.40480   0.18406   0.07933   0.89581   -0.40480   0.18406   102.16980
721   0.07939   0.89566   -0.40504   0.18421   0.07939   0.89566   -0.40504   0.18421   102.02942
722   0.07930   0.89560   -0.40474   0.18516   0.07930   0.89560   -0.40474   0.18516   102.13318
723   0.07922   0.89520   -0.40565   0.18497   0.07922   0.89520   -0.40565   0.18497   102.21863
724   0.07922   0.89544   -0.40513   0.18497   0.07922   0.89544   -0.40513   0.18497   102.14844
725   0.07930   0.89499   -0.40577   0.18577   0.07930   0.89499   -0.40577   0.18577   102.06604
726   0.07906   0.89590   -0.40492   0.18357   0.07906   0.89590   -0.40492   0.18357   102.11792
727   0.07908   0.89566   -0.40501   0.18451   0.07908   0.89566   -0.40501   0.18451   102.20947
728   0.07933   0.89502   -0.40596   0.18516   0.07933   0.89502   -0.40596   0.18516   102.16980
729   0.07941   0.89523   -0.40516   0.18632   0.07941   0.89523   -0.40516   0.18632   102.07520
730   0.07929   0.89560   -0.40471   0.18509   0.07929   0.89560   -0.40471   0.18509   102.13623
731   0.07918   0.89563   -0.40471   0.18522   0.07918   0.89563   -0.40471   0.18522   102.23083
732   0.07939   0.89560   -0.40458   0.18561   0.07939   0.89560   -0.40458   0.18561   102.13318
733   0.07941   0.89563   -0.40477   0.18500   0.07941   0.89563   -0.40477   0.18500   102.08435
734   0.07936   0.89560   -0.40510   0.18421   0.07936   0.89560   -0.40510   0.18421   102.19116
735   0.07931   0.89575   -0.40501   0.18400   0.07931   0.89575   -0.40501   0.18400   102.19116
736   0.07937   0.89557   -0.40501   0.18513   0.07937   0.89557   -0.40501   0.18513   102.09656
737   0.07932   0.89532   -0.40587   0.18397   0.07932   0.89532   -0.40587   0.18397   102.14539
738   0.07921   0.89566   -0.40489   0.18497   0.07921   0.89566   -0.40489   0.18497   102.16064
739   0.07927   0.89581   -0.40434   0.18488   0.07927   0.89581   -0.40434   0.18488   102.15759
740   0.07926   0.89547   -0.40507   0.18497   0.07926   0.89547   -0.40507   0.18497   102.11182
741   0.07930   0.89587   -0.40440   0.18488   0.07930   0.89587   -0.40440   0.18488   102.13318
742   0.07926   0.89523   -0.40492   0.18619   0.07926   0.89523   -0.40492   0.18619   102.18201
743   0.07932   0.89541   -0.40507   0.18586   0.07932   0.89541   -0.40507   0.18586   102.08740
744   0.07931   0.89520   -0.40602   0.18491   0.07931   0.89520   -0.40602   0.18491   102.09961
745   0.07941   0.89575   -0.40477   0.18448   0.07941   0.89575   -0.40477   0.18448   102.14233
746   0.07944   0.89569   -0.40495   0.18476   0.07944   0.89569   -0.40495   0.18476   102.13013
747   0.07930   0.89547   -0.40489   0.18583   0.07930   0.89547   -0.40489   0.18583   102.07825
748   0.07926   0.89566   -0.40489   0.18448   0.07926   0.89566   -0.40489   0.18448   102.14844
749   0.07930   0.89584   -0.40370   0.18589   0.07930   0.89584   -0.40370   0.18589   102.18201
750   0.07941   0.89547   -0.40452   0.18628   0.07941   0.89547   -0.40452   0.18628   102.10876
751   0.07935   0.89587   -0.40422   0.18546   0.07935   0.89587   -0.40422   0.18546   102.07520
752   0.07920   0.89526   -0.40513   0.18580   0.07920   0.89526   -0.40513   0.18580   102.17285
753   0.07918   0.89474   -0.40672   0.18525   0.07918   0.89474   -0.40672   0.18525   102.21863
754   0.07933   0.89538   -0.40480   0.18601   0.07933   0.89538   -0.40480   0.18601   102.06299
755   0.07935   0.89587   -0.40425   0.18491   0.07935   0.89587   -0.40425   0.18491   102.08740
756   0.07924   0.89529   -0.40553   0.18525   0.07924   0.89529   -0.40553   0.18525   102.20642
757   0.07924   0.89535   -0.40510   0.18552   0.07924   0.89535   -0.40510   0.18552   102.20642
758   0.07932   0.89547   -0.40486   0.18564   0.07932   0.89547   -0.40486   0.18564   102.08740
759   0.07937   0.89581   -0.40461   0.18470   0.07937   0.89581   -0.40461   0.18470   102.08740
760   0.07931   0.89578   -0.40443   0.18500   0.07931   0.89578   -0.40443   0.18500   102.19116
761   0.07929   0.89544   -0.40544   0.18455   0.07929   0.89544   -0.40544   0.18455   102.24915
762   0.07954   0.89535   -0.40492   0.18540   0.07954   0.89535   -0.40492   0.18540   102.05994
763   0.07924   0.89554   -0.40471   0.18549   0.07924   0.89554   -0.40471   0.18549   102.11182
764   0.07900   0.89563   -0.40553   0.18348   0.07900   0.89563   -0.40553   0.18348   102.20032
765   0.07919   0.89563   -0.40519   0.18448   0.07919   0.89563   -0.40519   0.18448   102.12708
766   0.07935   0.89520   -0.40519   0.18580   0.07935   0.89520   -0.40519   0.18580   102.04163
767   0.07920   0.89511   -0.40550   0.18549   0.07920   0.89511   -0.40550   0.18549   102.16064
768   0.07912   0.89544   -0.40544   0.18442   0.07912   0.89544   -0.40544   0.18442   102.18506
769   0.07927   0.89514   -0.40516   0.18665   0.07927   0.89514   -0.40516   0.18665   102.14539
770   0.07933   0.89572   -0.40443   0.18516   0.07933   0.89572   -0.40443   0.18516   102.08740
771   0.07928   0.89563   -0.40464   0.18525   0.07928   0.89563   -0.40464   0.18525   102.15759
772   0.07924   0.89514   -0.40608   0.18494   0.07924   0.89514   -0.40608   0.18494   102.16980
773   0.07934   0.89572   -0.40434   0.18540   0.07934   0.89572   -0.40434   0.18540   102.12097
774   0.07932   0.89554   -0.40510   0.18509   0.07932   0.89554   -0.40510   0.18509   102.11182
775   0.07935   0.89578   -0.40461   0.18482   0.07935   0.89578   -0.40461   0.18482   102.10876
776   0.07933   0.89554   -0.40471   0.18543   0.07933   0.89554   -0.40471   0.18543   102.16675
777   0.07939   0.89511   -0.40626   0.18412   0.07939   0.89511   -0.40626   0.18412   102.06299
778   0.07927   0.89514   -0.40577   0.18525   0.07927   0.89514   -0.40577   0.18525   102.11182
779   0.07911   0.89535   -0.40559   0.18473   0.07911   0.89535   -0.40559   0.18473   102.26746
780   0.07930   0.89514   -0.40556   0.18549   0.07930   0.89514   -0.40556   0.18549   102.12402
781   0.07931   0.89541   -0.40513   0.18522   0.07931   0.89541   -0.40513   0.18522   102.07520
782   0.07926   0.89514   -0.40605   0.18445   0.07926   0.89514   -0.40605   0.18445   102.22778
783   0.07928   0.89554   -0.40550   0.18455   0.07928   0.89554   -0.40550   0.18455   102.13623
784   0.07935   0.89532   -0.40538   0.18500   0.07935   0.89532   -0.40538   0.18500   102.08740
785   0.07934   0.89538   -0.40574   0.18439   0.07934   0.89538   -0.40574   0.18439   102.13318
786   0.07924   0.89517   -0.40550   0.18537   0.07924   0.89517   -0.40550   0.18537   102.21558
787   0.07937   0.89492   -0.40608   0.18580   0.07937   0.89492   -0.40608   0.18580   102.08740
788   0.07941   0.89474   -0.40678   0.18488   0.07941   0.89474   -0.40678   0.18488   102.07520
789   0.07936   0.89492   -0.40675   0.18430   0.07936   0.89492   -0.40675   0.18430   102.13318
790   0.07927   0.89511   -0.40620   0.18467   0.07927   0.89511   -0.40620   0.18467   102.22778
791   0.07932   0.89511   -0.40574   0.18537   0.07932   0.89511   -0.40574   0.18537   102.13318
792   0.07934   0.89517   -0.40574   0.18491   0.07934   0.89517   -0.40574   0.18491   102.05383
793   0.07922   0.89520   -0.40593   0.18439   0.07922   0.89520   -0.40593   0.18439   102.14844
794   0.07920   0.89523   -0.40584   0.18464   0.07920   0.89523   -0.40584   0.18464   102.21863
795   0.07930   0.89486   -0.40675   0.18442   0.07930   0.89486   -0.40675   0.18442   102.09961
796   0.07936   0.89465   -0.40736   0.18403   0.07936   0.89465   -0.40736   0.18403   102.06299
797   0.07927   0.89441   -0.40773   0.18430   0.07927   0.89441   -0.40773   0.18430   102.19421
798   0.07923   0.89517   -0.40602   0.18467   0.07923   0.89517   -0.40602   0.18467   102.20642
799   0.07932   0.89514   -0.40559   0.18543   0.07932   0.89514   -0.40559   0.18543   102.07520
800   0.07937   0.89468   -0.40739   0.18427   0.07937   0.89468   -0.40739   0.18427   102.09656
801   0.07933   0.89483   -0.40684   0.18436   0.07933   0.89483   -0.40684   0.18436   102.17896
802   0.07928   0.89477   -0.40654   0.18574   0.07928   0.89477   -0.40654   0.18574   102.18201
803   0.07937   0.89474   -0.40663   0.18497   0.07937   0.89474   -0.40663   0.18497   102.10876
804   0.07936   0.89496   -0.40645   0.18470   0.07936   0.89496   -0.40645   0.18470   102.09961
805   0.07927   0.89499   -0.40678   0.18387   0.07927   0.89499   -0.40678   0.18387   102.16980
806   0.07922   0.89471   -0.40678   0.18522   0.07922   0.89471   -0.40678   0.18522   102.13623
807   0.07925   0.89532   -0.40623   0.18339   0.07925   0.89532   -0.40623   0.18339   102.09961
808   0.07929   0.89462   -0.40715   0.18458   0.07929   0.89462   -0.40715   0.18458   102.16980
809   0.07923   0.89434   -0.40788   0.18445   0.07923   0.89434   -0.40788   0.18445   102.16980
810   0.07933   0.89459   -0.40757   0.18381   0.07933   0.89459   -0.40757   0.18381   102.09961
811   0.07928   0.89508   -0.40556   0.18650   0.07928   0.89508   -0.40556   0.18650   102.14539
812   0.07926   0.89468   -0.40687   0.18497   0.07926   0.89468   -0.40687   0.18497   102.18201
813   0.07927   0.89489   -0.40632   0.18500   0.07927   0.89489   -0.40632   0.18500   102.18201
814   0.07932   0.89468   -0.40654   0.18561   0.07932   0.89468   -0.40654   0.18561   102.11182
815   0.07929   0.89486   -0.40687   0.18415   0.07929   0.89486   -0.40687   0.18415   102.15759
816   0.07925   0.89462   -0.40715   0.18433   0.07925   0.89462   -0.40715   0.18433   102.22778
817   0.07937   0.89480   -0.40675   0.18461   0.07937   0.89480   -0.40675   0.18461   102.09656
818   0.07937   0.89465   -0.40672   0.18537   0.07937   0.89465   -0.40672   0.18537   102.07520
819   0.07924   0.89468   -0.40709   0.18470   0.07924   0.89468   -0.40709   0.18470   102.19421
820   0.07922   0.89514   -0.40587   0.18470   0.07922   0.89514   -0.40587   0.18470   102.13623
821   0.07927   0.89468   -0.40696   0.18482   0.07927   0.89468   -0.40696   0.18482   102.11182
822   0.07928   0.89511   -0.40635   0.18415   0.07928   0.89511   -0.40635   0.18415   102.11182
823   0.07926   0.89511   -0.40648   0.18381   0.07926   0.89511   -0.40648   0.18381   102.16980
824   0.07926   0.89511   -0.40641   0.18445   0.07926   0.89511   -0.40641   0.18445   102.19421
825   0.07935   0.89514   -0.40611   0.18494   0.07935   0.89514   -0.40611   0.18494   102.02942
826   0.07936   0.89441   -0.40797   0.18400   0.07936   0.89441   -0.40797   0.18400   102.15454
827   0.07938   0.89462   -0.40681   0.18522   0.07938   0.89462   -0.40681   0.18522   102.19116
828   0.07934   0.89459   -0.40730   0.18415   0.07934   0.89459   -0.40730   0.18415   102.16675
829   0.07937   0.89459   -0.40681   0.18531   0.07937   0.89459   -0.40681   0.18531   102.07520
830   0.07938   0.89462   -0.40757   0.18415   0.07938   0.89462   -0.40757   0.18415   102.12097
831   0.07930   0.89505   -0.40623   0.18464   0.07930   0.89505   -0.40623   0.18464   102.21558
832   0.07930   0.89511   -0.40608   0.18509   0.07930   0.89511   -0.40608   0.18509   102.14539
833   0.07930   0.89486   -0.40681   0.18400   0.07930   0.89486   -0.40681   0.18400   102.08740
834   0.07921   0.89474   -0.40696   0.18461   0.07921   0.89474   -0.40696   0.18461   102.13623
835   0.07920   0.89444   -0.40718   0.18519   0.07920   0.89444   -0.40718   0.18519   102.25220
836   0.07926   0.89431   -0.40757   0.18519   0.07926   0.89431   -0.40757   0.18519   102.11182
837   0.07933   0.89489   -0.40693   0.18381   0.07933   0.89489   -0.40693   0.18381   102.08740
838   0.07927   0.89465   -0.40693   0.18479   0.07927   0.89465   -0.40693   0.18479   102.19421
839   0.07927   0.89529   -0.40556   0.18488   0.07927   0.89529   -0.40556   0.18488   102.18201
840   0.07933   0.89496   -0.40611   0.18525   0.07933   0.89496   -0.40611   0.18525   102.09961
841   0.07933   0.89474   -0.40733   0.18366   0.07933   0.89474   -0.40733   0.18366   102.15759
842   0.07933   0.89505   -0.40629   0.18461   0.07933   0.89505   -0.40629   0.18461   102.15759
843   0.07933   0.89462   -0.40693   0.18500   0.07933   0.89462   -0.40693   0.18500   102.13318
844   0.07933   0.89444   -0.40767   0.18458   0.07933   0.89444   -0.40767   0.18458   102.13318
845   0.07914   0.89434   -0.40721   0.18580   0.07914   0.89434   -0.40721   0.18580   102.17285
846   0.07911   0.89468   -0.40709   0.18451   0.07911   0.89468   -0.40709   0.18451   102.20947
847   0.07933   0.89431   -0.40727   0.18589   0.07933   0.89431   -0.40727   0.18589   102.13318
848   0.07927   0.89502   -0.40605   0.18506   0.07927   0.89502   -0.40605   0.18506   102.14539
849   0.07912   0.89511   -0.40632   0.18409   0.07912   0.89511   -0.40632   0.18409   102.17285
850   0.07914   0.89477   -0.40660   0.18522   0.07914   0.89477   -0.40660   0.18522   102.17285
851   0.07930   0.89511   -0.40611   0.18491   0.07930   0.89511   -0.40611   0.18491   102.12402
852   0.07931   0.89471   -0.40709   0.18427   0.07931   0.89471   -0.40709   0.18427   102.11182
853   0.07922   0.89496   -0.40684   0.18397   0.07922   0.89496   -0.40684   0.18397   102.20642
854   0.07930   0.89517   -0.40602   0.18491   0.07930   0.89517   -0.40602   0.18491   102.11182
855   0.07933   0.89492   -0.40602   0.18577   0.07933   0.89492   -0.40602   0.18577   102.02942
856   0.07930   0.89486   -0.40654   0.18482   0.07930   0.89486   -0.40654   0.18482   102.14539
857   0.07922   0.89508   -0.40629   0.18430   0.07922   0.89508   -0.40629   0.18430   102.23999
858   0.07936   0.89514   -0.40638   0.18448   0.07936   0.89514   -0.40638   0.18448   102.08740
859   0.07937   0.89480   -0.40684   0.18436   0.07937   0.89480   -0.40684   0.18436   102.05078
860   0.07926   0.89496   -0.40736   0.18256   0.07926   0.89496   -0.40736   0.18256   102.18201
861   0.07919   0.89517   -0.40602   0.18476   0.07919   0.89517   -0.40602   0.18476   102.25220
862   0.07936   0.89526   -0.40559   0.18455   0.07936   0.89526   -0.40559   0.18455   102.08740
863   0.07936   0.89508   -0.40629   0.18433   0.07936   0.89508   -0.40629   0.18433   102.10876
864   0.07922   0.89486   -0.40638   0.18491   0.07922   0.89486   -0.40638   0.18491   102.19421
865   0.07930   0.89489   -0.40654   0.18485   0.07930   0.89489   -0.40654   0.18485   102.22778
866   0.07939   0.89523   -0.40577   0.18467   0.07939   0.89523   -0.40577   0.18467   102.07520
867   0.07941   0.89514   -0.40599   0.18439   0.07941   0.89514   -0.40599   0.18439   102.10876
868   0.07931   0.89477   -0.40727   0.18378   0.07931   0.89477   -0.40727   0.18378   102.20337
869   0.07932   0.89505   -0.40641   0.18418   0.07932   0.89505   -0.40641   0.18418   102.21558
870   0.07945   0.89554   -0.40522   0.18485   0.07945   0.89554   -0.40522   0.18485   102.03857
871   0.07942   0.89499   -0.40709   0.18326   0.07942   0.89499   -0.40709   0.18326   102.08435
872   0.07931   0.89523   -0.40608   0.18406   0.07931   0.89523   -0.40608   0.18406   102.20337
873   0.07931   0.89465   -0.40721   0.18473   0.07931   0.89465   -0.40721   0.18473   102.15759
874   0.07933   0.89492   -0.40626   0.18491   0.07933   0.89492   -0.40626   0.18491   102.12097
875   0.07922   0.89499   -0.40654   0.18403   0.07922   0.89499   -0.40654   0.18403   102.14844
876   0.07922   0.89511   -0.40596   0.18445   0.07922   0.89511   -0.40596   0.18445   102.22778
877   0.07929   0.89508   -0.40614   0.18482   0.07929   0.89508   -0.40614   0.18482   102.14539
878   0.07930   0.89483   -0.40718   0.18336   0.07930   0.89483   -0.40718   0.18336   102.13318
879   0.07928   0.89541   -0.40596   0.18381   0.07928   0.89541   -0.40596   0.18381   102.15759
880   0.07931   0.89483   -0.40651   0.18467   0.07931   0.89483   -0.40651   0.18467   102.17896
881   0.07934   0.89532   -0.40565   0.18479   0.07934   0.89532   -0.40565   0.18479   102.10876
882   0.07931   0.89477   -0.40699   0.18430   0.07931   0.89477   -0.40699   0.18430   102.14539
883   0.07930   0.89486   -0.40703   0.18387   0.07930   0.89486   -0.40703   0.18387   102.19116
884   0.07935   0.89538   -0.40556   0.18467   0.07935   0.89538   -0.40556   0.18467   102.13318
885   0.07938   0.89511   -0.40623   0.18445   0.07938   0.89511   -0.40623   0.18445   102.09656
886   0.07933   0.89499   -0.40654   0.18384   0.07933   0.89499   -0.40654   0.18384   102.17896
887   0.07927   0.89550   -0.40568   0.18384   0.07927   0.89550   -0.40568   0.18384   102.18201
888   0.07930   0.89514   -0.40617   0.18470   0.07930   0.89514   -0.40617   0.18470   102.05383
889   0.07923   0.89532   -0.40565   0.18470   0.07923   0.89532   -0.40565   0.18470   102.12402
890   0.07925   0.89505   -0.40651   0.18409   0.07925   0.89505   -0.40651   0.18409   102.20642
891   0.07922   0.89502   -0.40657   0.18378   0.07922   0.89502   -0.40657   0.18378   102.22778
892   0.07933   0.89596   -0.40437   0.18455   0.07933   0.89596   -0.40437   0.18455   102.06299
893   0.07931   0.89514   -0.40577   0.18473   0.07931   0.89514   -0.40577   0.18473   102.12402
894   0.07925   0.89569   -0.40495   0.18427   0.07925   0.89569   -0.40495   0.18427   102.20642
895   0.07930   0.89523   -0.40580   0.18458   0.07930   0.89523   -0.40580   0.18458   102.15759
896   0.07937   0.89480   -0.40712   0.18397   0.07937   0.89480   -0.40712   0.18397   102.09656
897   0.07938   0.89557   -0.40577   0.18320   0.07938   0.89557   -0.40577   0.18320   102.10876
898   0.07928   0.89535   -0.40617   0.18360   0.07928   0.89535   -0.40617   0.18360   102.20337
899   0.07933   0.89566   -0.40495   0.18445   0.07933   0.89566   -0.40495   0.18445   102.14539
900   0.07939   0.89569   -0.40489   0.18473   0.07939   0.89569   -0.40489   0.18473   102.08740
901   0.07929   0.89581   -0.40431   0.18470   0.07929   0.89581   -0.40431   0.18470   102.16980
902   0.07920   0.89508   -0.40611   0.18503   0.07920   0.89508   -0.40611   0.18503   102.25220
903   0.07923   0.89489   -0.40696   0.18412   0.07923   0.89489   -0.40696   0.18412   102.12402
904   0.07935   0.89517   -0.40608   0.18461   0.07935   0.89517   -0.40608   0.18461   102.06299
905   0.07926   0.89547   -0.40538   0.18400   0.07926   0.89547   -0.40538   0.18400   102.19421
906   0.07928   0.89584   -0.40428   0.18500   0.07928   0.89584   -0.40428   0.18500   102.15759
907   0.07933   0.89523   -0.40614   0.18390   0.07933   0.89523   -0.40614   0.18390   102.12097
908   0.07935   0.89544   -0.40556   0.18436   0.07935   0.89544   -0.40556   0.18436   102.08740
909   0.07930   0.89508   -0.40611   0.18479   0.07930   0.89508   -0.40611   0.18479   102.16980
910   0.07930   0.89544   -0.40568   0.18378   0.07930   0.89544   -0.40568   0.18378   102.20337
911   0.07940   0.89541   -0.40571   0.18430   0.07940   0.89541   -0.40571   0.18430   102.08435
912   0.07935   0.89587   -0.40443   0.18424   0.07935   0.89587   -0.40443   0.18424   102.12097
913   0.07934   0.89566   -0.40547   0.18332   0.07934   0.89566   -0.40547   0.18332   102.15759
914   0.07934   0.89538   -0.40504   0.18540   0.07934   0.89538   -0.40504   0.18540   102.13318
915   0.07931   0.89529   -0.40519   0.18561   0.07931   0.89529   -0.40519   0.18561   102.12402
916   0.07922   0.89538   -0.40590   0.18363   0.07922   0.89538   -0.40590   0.18363   102.18201
917   0.07920   0.89532   -0.40580   0.18418   0.07920   0.89532   -0.40580   0.18418   102.18201
918   0.07932   0.89520   -0.40574   0.18485   0.07932   0.89520   -0.40574   0.18485   102.07520
919   0.07925   0.89517   -0.40605   0.18467   0.07925   0.89517   -0.40605   0.18467   102.18201
920   0.07926   0.89520   -0.40620   0.18415   0.07926   0.89520   -0.40620   0.18415   102.18201
921   0.07927   0.89538   -0.40532   0.18473   0.07927   0.89538   -0.40532   0.18473   102.16980
922   0.07937   0.89526   -0.40568   0.18491   0.07937   0.89526   -0.40568   0.18491   102.09656
923   0.07933   0.89535   -0.40541   0.18494   0.07933   0.89535   -0.40541   0.18494   102.15759
924   0.07928   0.89529   -0.40550   0.18516   0.07928   0.89529   -0.40550   0.18516   102.18201
925   0.07930   0.89517   -0.40535   0.18577   0.07930   0.89517   -0.40535   0.18577   102.13318
926   0.07919   0.89523   -0.40529   0.18577   0.07919   0.89523   -0.40529   0.18577   102.06909
927   0.07918   0.89505   -0.40617   0.18470   0.07918   0.89505   -0.40617   0.18470   102.13623
928   0.07930   0.89511   -0.40660   0.18311   0.07930   0.89511   -0.40660   0.18311   102.21558
929   0.07938   0.89544   -0.40513   0.18516   0.07938   0.89544   -0.40513   0.18516   102.10876
930   0.07927   0.89532   -0.40532   0.18540   0.07927   0.89532   -0.40532   0.18540   102.04163
931   0.07920   0.89544   -0.40605   0.18348   0.07920   0.89544   -0.40605   0.18348   102.16064
932   0.07922   0.89486   -0.40706   0.18412   0.07922   0.89486   -0.40706   0.18412   102.22778
933   0.07937   0.89505   -0.40559   0.18577   0.07937   0.89505   -0.40559   0.18577   102.09656
934   0.07937   0.89511   -0.40590   0.18488   0.07937   0.89511   -0.40590   0.18488   102.12097
935   0.07931   0.89575   -0.40471   0.18430   0.07931   0.89575   -0.40471   0.18430   102.16980
936   0.07930   0.89547   -0.40544   0.18467   0.07930   0.89547   -0.40544   0.18467   102.19116
937   0.07938   0.89496   -0.40587   0.18571   0.07938   0.89496   -0.40587   0.18571   102.07520
938   0.07939   0.89486   -0.40736   0.18351   0.07939   0.89486   -0.40736   0.18351   102.10876
939   0.07926   0.89514   -0.40617   0.18448   0.07926   0.89514   -0.40617   0.18448   102.22778
940   0.07932   0.89526   -0.40584   0.18503   0.07932   0.89526   -0.40584   0.18503   102.16980
941   0.07935   0.89529   -0.40501   0.18595   0.07935   0.89529   -0.40501   0.18595   102.08740
942   0.07933   0.89520   -0.40599   0.18403   0.07933   0.89520   -0.40599   0.18403   102.15759
943   0.07922   0.89566   -0.40501   0.18458   0.07922   0.89566   -0.40501   0.18458   102.18201
944   0.07922   0.89508   -0.40608   0.18503   0.07922   0.89508   -0.40608   0.18503   102.12402
945   0.07938   0.89541   -0.40535   0.18503   0.07938   0.89541   -0.40535   0.18503   102.09656
946   0.07934   0.89523   -0.40590   0.18439   0.07934   0.89523   -0.40590   0.18439   102.17896
947   0.07917   0.89523   -0.40574   0.18473   0.07917   0.89523   -0.40574   0.18473   102.18506
948   0.07920   0.89465   -0.40657   0.18604   0.07920   0.89465   -0.40657   0.18604   102.10266
949   0.07936   0.89502   -0.40669   0.18378   0.07936   0.89502   -0.40669   0.18378   102.13318
950   0.07940   0.89508   -0.40599   0.18485   0.07940   0.89508   -0.40599   0.18485   102.16675
951   0.07938   0.89566   -0.40486   0.18488   0.07938   0.89566   -0.40486   0.18488   102.14233
952   0.07939   0.89505   -0.40663   0.18369   0.07939   0.89505   -0.40663   0.18369   102.12097
953   0.07927   0.89547   -0.40513   0.18485   0.07927   0.89547   -0.40513   0.18485   102.20337
954   0.07933   0.89492   -0.40632   0.18494   0.07933   0.89492   -0.40632   0.18494   102.22473
955   0.07936   0.89535   -0.40559   0.18491   0.07936   0.89535   -0.40559   0.18491   102.09961
956   0.07930   0.89550   -0.40538   0.18409   0.07930   0.89550   -0.40538   0.18409   102.13318
957   0.07922   0.89557   -0.40571   0.18320   0.07922   0.89557   -0.40571   0.18320   102.18201
958   0.07922   0.89541   -0.40608   0.18308   0.07922   0.89541   -0.40608   0.18308   102.17285
959   0.07934   0.89505   -0.40620   0.18491   0.07934   0.89505   -0.40620   0.18491   102.05383
960   0.07931   0.89514   -0.40608   0.18412   0.07931   0.89514   -0.40608   0.18412   102.14539
961   0.07937   0.89550   -0.40571   0.18348   0.07937   0.89550   -0.40571   0.18348   102.20032
962   0.07939   0.89535   -0.40529   0.18543   0.07939   0.89535   -0.40529   0.18543   102.16675
963   0.07922   0.89569   -0.40480   0.18500   0.07922   0.89569   -0.40480   0.18500   102.05688
964   0.07913   0.89496   -0.40672   0.18406   0.07913   0.89496   -0.40672   0.18406   102.12708
965   0.07934   0.89492   -0.40663   0.18412   0.07934   0.89492   -0.40663   0.18412   102.24915
966   0.07938   0.89505   -0.40623   0.18467   0.07938   0.89505   -0.40623   0.18467   102.15454
967   0.07929   0.89508   -0.40593   0.18476   0.07929   0.89508   -0.40593   0.18476   102.07825
968   0.07924   0.89526   -0.40608   0.18360   0.07924   0.89526   -0.40608   0.18360   102.12402
969   0.07925   0.89557   -0.40504   0.18476   0.07925   0.89557   -0.40504   0.18476   102.22778
970   0.07929   0.89514   -0.40608   0.18451   0.07929   0.89514   -0.40608   0.18451   102.15759
971   0.07921   0.89547   -0.40556   0.18412   0.07921   0.89547   -0.40556   0.18412   102.10266
972   0.07915   0.89517   -0.40584   0.18488   0.07915   0.89517   -0.40584   0.18488   102.19727
973   0.07922   0.89572   -0.40452   0.18549   0.07922   0.89572   -0.40452   0.18549   102.21863
974   0.07930   0.89517   -0.40590   0.18506   0.07930   0.89517   -0.40590   0.18506   102.11182
975   0.07932   0.89514   -0.40635   0.18409   0.07932   0.89514   -0.40635   0.18409   102.05383
976   0.07924   0.89523   -0.40648   0.18363   0.07924   0.89523   -0.40648   0.18363   102.21558
977   0.07929   0.89550   -0.40550   0.18418   0.07929   0.89550   -0.40550   0.18418   102.18201
978   0.07934   0.89477   -0.40693   0.18448   0.07934   0.89477   -0.40693   0.18448   102.12097
979   0.07936   0.89529   -0.40550   0.18488   0.07936   0.89529   -0.40550   0.18488   102.12097
980   0.07930   0.89526   -0.40553   0.18497   0.07930   0.89526   -0.40553   0.18497   102.18201
981   0.07933   0.89520   -0.40562   0.18506   0.07933   0.89520   -0.40562   0.18506   102.13318
982   0.07937   0.89538   -0.40559   0.18476   0.07937   0.89538   -0.40559   0.18476   102.08740
983   0.07931   0.89492   -0.40663   0.18427   0.07931   0.89492   -0.40663   0.18427   102.15759
984   0.07928   0.89538   -0.40580   0.18409   0.07928   0.89538   -0.40580   0.18409   102.15759
985   0.07923   0.89544   -0.40550   0.18445   0.07923   0.89544   -0.40550   0.18445   102.13623
986   0.07925   0.89541   -0.40587   0.18372   0.07925   0.89541   -0.40587   0.18372   102.12402
987   0.07918   0.89526   -0.40608   0.18381   0.07918   0.89526   -0.40608   0.18381   102.19421
988   0.07926   0.89514   -0.40611   0.18470   0.07926   0.89514   -0.40611   0.18470   102.15759
989   0.07933   0.89572   -0.40480   0.18415   0.07933   0.89572   -0.40480   0.18415   102.09961
990   0.07927   0.89569   -0.40468   0.18485   0.07927   0.89569   -0.40468   0.18485   102.13623
991   0.07927   0.89587   -0.40443   0.18448   0.07927   0.89587   -0.40443   0.18448   102.18201
992   0.07933   0.89572   -0.40455   0.18513   0.07933   0.89572   -0.40455   0.18513   102.12097
993   0.07940   0.89541   -0.40541   0.18445   0.07940   0.89541   -0.40541   0.18445   102.06299
994   0.07933   0.89541   -0.40574   0.18381   0.07933   0.89541   -0.40574   0.18381   102.14539
995   0.07928   0.89538   -0.40501   0.18592   0.07928   0.89538   -0.40501   0.18592   102.20337
996   0.07936   0.89587   -0.40403   0.18534   0.07936   0.89587   -0.40403   0.18534   102.08740
997   0.07933   0.89550   -0.40519   0.18451   0.07933   0.89550   -0.40519   0.18451   102.11182
998   0.07927   0.89554   -0.40529   0.18482   0.07927   0.89554   -0.40529   0.18482   102.15759
999   0.07919   0.89572   -0.40486   0.18448   0.07919   0.89572   -0.40486   0.18448   102.17285
1000   0.07933   0.89560   -0.40480   0.18497   0.07933   0.89560   -0.40480   0.18497   102.06299
1001   0.07932   0.89547   -0.40507   0.18482   0.07932   0.89547   -0.40507   0.18482   102.08740
1002   0.07927   0.89547   -0.40544   0.18476   0.07927   0.89547   -0.40544   0.18476   102.21558
1003   0.07928   0.89560   -0.40507   0.18451   0.07928   0.89560   -0.40507   0.18451   102.15759
1004   0.07936   0.89557   -0.40486   0.18534   0.07936   0.89557   -0.40486   0.18534   102.09961
1005   0.07937   0.89502   -0.40675   0.18336   0.07937   0.89502   -0.40675   0.18336   102.10876
1006   0.07931   0.89520   -0.40593   0.18421   0.07931   0.89520   -0.40593   0.18421   102.20337
1007   0.07934   0.89529   -0.40617   0.18381   0.07934   0.89529   -0.40617   0.18381   102.17896
1008   0.07940   0.89535   -0.40568   0.18439   0.07940   0.89535   -0.40568   0.18439   102.05078
1009   0.07936   0.89520   -0.40559   0.18516   0.07936   0.89520   -0.40559   0.18516   102.13318
1010   0.07933   0.89557   -0.40464   0.18558   0.07933   0.89557   -0.40464   0.18558   102.17896
1011   0.07939   0.89596   -0.40422   0.18485   0.07939   0.89596   -0.40422   0.18485   102.09656
1012   0.07927   0.89554   -0.40522   0.18451   0.07927   0.89554   -0.40522   0.18451   102.09961
1013   0.07920   0.89541   -0.40590   0.18400   0.07920   0.89541   -0.40590   0.18400   102.14844
1014   0.07926   0.89544   -0.40507   0.18488   0.07926   0.89544   -0.40507   0.18488   102.16980
1015   0.07931   0.89557   -0.40498   0.18509   0.07931   0.89557   -0.40498   0.18509   102.07520
1016   0.07932   0.89563   -0.40519   0.18418   0.07932   0.89563   -0.40519   0.18418   102.14539
1017   0.07926   0.89526   -0.40571   0.18439   0.07926   0.89526   -0.40571   0.18439   102.21558
1018   0.07936   0.89566   -0.40532   0.18387   0.07936   0.89566   -0.40532   0.18387   102.12097
1019   0.07937   0.89575   -0.40455   0.18485   0.07937   0.89575   -0.40455   0.18485   102.07520
1020   0.07931   0.89550   -0.40474   0.18540   0.07931   0.89550   -0.40474   0.18540   102.17896
1021   0.07933   0.89483   -0.40663   0.18470   0.07933   0.89483   -0.40663   0.18470   102.20337
1022   0.07938   0.89502   -0.40635   0.18397   0.07938   0.89502   -0.40635   0.18397   102.13318
1023   0.07937   0.89523   -0.40587   0.18488   0.07937   0.89523   -0.40587   0.18488   102.12097
1024   0.07933   0.89547   -0.40547   0.18390   0.07933   0.89547   -0.40547   0.18390   102.16675
1025   0.07930   0.89520   -0.40611   0.18418   0.07930   0.89520   -0.40611   0.18418   102.19116
1026   0.07936   0.89557   -0.40458   0.18555   0.07936   0.89557   -0.40458   0.18555   102.04163
1027   0.07940   0.89541   -0.40510   0.18497   0.07940   0.89541   -0.40510   0.18497   102.16675
1028   0.07929   0.89581   -0.40458   0.18473   0.07929   0.89581   -0.40458   0.18473   102.21558
1029   0.07930   0.89535   -0.40538   0.18497   0.07930   0.89535   -0.40538   0.18497   102.11182
1030   0.07938   0.89538   -0.40556   0.18442   0.07938   0.89538   -0.40556   0.18442   102.10876
1031   0.07933   0.89532   -0.40529   0.18516   0.07933   0.89532   -0.40529   0.18516   102.16675
1032   0.07927   0.89480   -0.40709   0.18433   0.07927   0.89480   -0.40709   0.18433   102.21558
1033   0.07935   0.89496   -0.40626   0.18516   0.07935   0.89496   -0.40626   0.18516   102.08740
1034   0.07940   0.89535   -0.40547   0.18482   0.07940   0.89535   -0.40547   0.18482   102.06299
1035   0.07931   0.89535   -0.40565   0.18485   0.07931   0.89535   -0.40565   0.18485   102.14539
1036   0.07928   0.89547   -0.40547   0.18430   0.07928   0.89547   -0.40547   0.18430   102.22778
1037   0.07937   0.89535   -0.40526   0.18519   0.07937   0.89535   -0.40526   0.18519   102.09656
1038   0.07935   0.89511   -0.40590   0.18500   0.07935   0.89511   -0.40590   0.18500   102.09961
1039   0.07923   0.89505   -0.40599   0.18494   0.07923   0.89505   -0.40599   0.18494   102.21558
1040   0.07918   0.89612   -0.40352   0.18574   0.07918   0.89612   -0.40352   0.18574   102.17285
1041   0.07933   0.89547   -0.40504   0.18546   0.07933   0.89547   -0.40504   0.18546   102.04163
1042   0.07931   0.89560   -0.40477   0.18522   0.07931   0.89560   -0.40477   0.18522   102.08740
1043   0.07924   0.89511   -0.40596   0.18485   0.07924   0.89511   -0.40596   0.18485   102.18201
1044   0.07925   0.89575   -0.40422   0.18549   0.07925   0.89575   -0.40422   0.18549   102.14844
1045   0.07911   0.89538   -0.40529   0.18509   0.07911   0.89538   -0.40529   0.18509   102.06909
1046   0.07917   0.89532   -0.40623   0.18378   0.07917   0.89532   -0.40623   0.18378   102.11487
1047   0.07933   0.89581   -0.40419   0.18586   0.07933   0.89581   -0.40419   0.18586   102.14539
1048   0.07938   0.89538   -0.40553   0.18491   0.07938   0.89538   -0.40553   0.18491   102.13318
1049   0.07924   0.89499   -0.40599   0.18534   0.07924   0.89499   -0.40599   0.18534   102.12402
1050   0.07923   0.89535   -0.40611   0.18357   0.07923   0.89535   -0.40611   0.18357   102.16064
1051   0.07930   0.89517   -0.40541   0.18604   0.07930   0.89517   -0.40541   0.18604   102.19116
1052   0.07935   0.89535   -0.40522   0.18580   0.07935   0.89535   -0.40522   0.18580   102.09961
1053   0.07924   0.89566   -0.40559   0.18342   0.07924   0.89566   -0.40559   0.18342   102.15759
1054   0.07913   0.89578   -0.40471   0.18424   0.07913   0.89578   -0.40471   0.18424   102.19727
1055   0.07925   0.89526   -0.40532   0.18531   0.07925   0.89526   -0.40532   0.18531   102.12402
1056   0.07926   0.89538   -0.40468   0.18598   0.07926   0.89538   -0.40468   0.18598   102.11182
1057   0.07927   0.89529   -0.40574   0.18445   0.07927   0.89529   -0.40574   0.18445   102.16980
1058   0.07922   0.89541   -0.40498   0.18522   0.07922   0.89541   -0.40498   0.18522   102.18201
1059   0.07933   0.89541   -0.40443   0.18628   0.07933   0.89541   -0.40443   0.18628   102.06299
1060   0.07934   0.89575   -0.40419   0.18574   0.07934   0.89575   -0.40419   0.18574   102.09961
1061   0.07935   0.89557   -0.40516   0.18430   0.07935   0.89557   -0.40516   0.18430   102.17896
1062   0.07939   0.89563   -0.40449   0.18543   0.07939   0.89563   -0.40449   0.18543   102.17896
1063   0.07942   0.89544   -0.40477   0.18619   0.07942   0.89544   -0.40477   0.18619   102.05078
1064   0.07942   0.89529   -0.40544   0.18494   0.07942   0.89529   -0.40544   0.18494   102.12097
1065   0.07933   0.89514   -0.40556   0.18531   0.07933   0.89514   -0.40556   0.18531   102.21558
1066   0.07935   0.89554   -0.40480   0.18555   0.07935   0.89554   -0.40480   0.18555   102.17896
1067   0.07945   0.89557   -0.40464   0.18574   0.07945   0.89557   -0.40464   0.18574   102.03857
1068   0.07930   0.89566   -0.40519   0.18403   0.07930   0.89566   -0.40519   0.18403   102.12402
1069   0.07925   0.89511   -0.40599   0.18461   0.07925   0.89511   -0.40599   0.18461   102.18201
1070   0.07939   0.89560   -0.40458   0.18555   0.07939   0.89560   -0.40458   0.18555   102.12097
1071   0.07942   0.89520   -0.40611   0.18442   0.07942   0.89520   -0.40611   0.18442   102.07214
1072   0.07930   0.89529   -0.40522   0.18571   0.07930   0.89529   -0.40522   0.18571   102.11182
1073   0.07925   0.89550   -0.40471   0.18561   0.07925   0.89550   -0.40471   0.18561   102.23999
1074   0.07939   0.89550   -0.40464   0.18592   0.07939   0.89550   -0.40464   0.18592   102.12097
1075   0.07943   0.89505   -0.40608   0.18528   0.07943   0.89505   -0.40608   0.18528   102.07214
1076   0.07931   0.89520   -0.40556   0.18509   0.07931   0.89520   -0.40556   0.18509   102.19116
1077   0.07929   0.89563   -0.40425   0.18586   0.07929   0.89563   -0.40425   0.18586   102.18201
1078   0.07940   0.89508   -0.40571   0.18577   0.07940   0.89508   -0.40571   0.18577   102.06299
1079   0.07936   0.89532   -0.40568   0.18455   0.07936   0.89532   -0.40568   0.18455   102.09961
1080   0.07930   0.89544   -0.40501   0.18543   0.07930   0.89544   -0.40501   0.18543   102.16980
1081   0.07922   0.89560   -0.40477   0.18525   0.07922   0.89560   -0.40477   0.18525   102.16064
1082   0.07928   0.89599   -0.40367   0.18583   0.07928   0.89599   -0.40367   0.18583   102.07825
1083   0.07929   0.89523   -0.40495   0.18638   0.07929   0.89523   -0.40495   0.18638   102.11182
1084   0.07922   0.89547   -0.40538   0.18488   0.07922   0.89547   -0.40538   0.18488   102.18201
1085   0.07932   0.89535   -0.40458   0.18680   0.07932   0.89535   -0.40458   0.18680   102.08740
1086   0.07933   0.89554   -0.40455   0.18595   0.07933   0.89554   -0.40455   0.18595   102.12097
1087   0.07930   0.89538   -0.40504   0.18567   0.07930   0.89538   -0.40504   0.18567   102.19116
1088   0.07931   0.89569   -0.40526   0.18412   0.07931   0.89569   -0.40526   0.18412   102.15759
1089   0.07935   0.89560   -0.40449   0.18592   0.07935   0.89560   -0.40449   0.18592   102.09961
1090   0.07933   0.89563   -0.40458   0.18516   0.07933   0.89563   -0.40458   0.18516   102.15759
1091   0.07933   0.89544   -0.40516   0.18519   0.07933   0.89544   -0.40516   0.18519   102.14539
1092   0.07933   0.89547   -0.40529   0.18476   0.07933   0.89547   -0.40529   0.18476   102.14539
1093   0.07936   0.89514   -0.40553   0.18558   0.07936   0.89514   -0.40553   0.18558   102.07520
1094   0.07929   0.89541   -0.40529   0.18506   0.07929   0.89541   -0.40529   0.18506   102.12402
1095   0.07920   0.89572   -0.40410   0.18567   0.07920   0.89572   -0.40410   0.18567   102.18201
1096   0.07923   0.89557   -0.40452   0.18552   0.07923   0.89557   -0.40452   0.18552   102.10266
1097   0.07930   0.89517   -0.40544   0.18561   0.07930   0.89517   -0.40544   0.18561   102.07825
1098   0.07923   0.89557   -0.40550   0.18409   0.07923   0.89557   -0.40550   0.18409   102.14844
1099   0.07923   0.89593   -0.40437   0.18485   0.07923   0.89593   -0.40437   0.18485   102.18201
1100   0.07932   0.89563   -0.40428   0.18628   0.07932   0.89563   -0.40428   0.18628   102.09961
1101   0.07937   0.89557   -0.40489   0.18540   0.07937   0.89557   -0.40489   0.18540   102.05078
1102   0.07926   0.89492   -0.40629   0.18488   0.07926   0.89492   -0.40629   0.18488   102.19421
1103   0.07928   0.89541   -0.40501   0.18519   0.07928   0.89541   -0.40501   0.18519   102.20337
1104   0.07938   0.89538   -0.40486   0.18610   0.07938   0.89538   -0.40486   0.18610   102.09656
1105   0.07937   0.89566   -0.40464   0.18491   0.07937   0.89566   -0.40464   0.18491   102.07520
1106   0.07926   0.89569   -0.40434   0.18583   0.07926   0.89569   -0.40434   0.18583   102.22778
1107   0.07922   0.89572   -0.40443   0.18528   0.07922   0.89572   -0.40443   0.18528   102.18201
1108   0.07931   0.89569   -0.40446   0.18549   0.07931   0.89569   -0.40446   0.18549   102.08740
1109   0.07922   0.89505   -0.40571   0.18574   0.07922   0.89505   -0.40571   0.18574   102.12402
1110   0.07922   0.89599   -0.40413   0.18448   0.07922   0.89599   -0.40413   0.18448   102.20642
1111   0.07922   0.89566   -0.40437   0.18574   0.07922   0.89566   -0.40437   0.18574   102.13623
1112   0.07929   0.89569   -0.40492   0.18445   0.07929   0.89569   -0.40492   0.18445   102.06604
1113   0.07930   0.89547   -0.40507   0.18506   0.07930   0.89547   -0.40507   0.18506   102.09961
1114   0.07925   0.89517   -0.40562   0.18552   0.07925   0.89517   -0.40562   0.18552   102.20642
1115   0.07933   0.89596   -0.40397   0.18540   0.07933   0.89596   -0.40397   0.18540   102.08740
1116   0.07932   0.89547   -0.40538   0.18451   0.07932   0.89547   -0.40538   0.18451   102.11182
1117   0.07934   0.89489   -0.40645   0.18503   0.07934   0.89489   -0.40645   0.18503   102.13318
1118   0.07930   0.89535   -0.40544   0.18500   0.07930   0.89535   -0.40544   0.18500   102.16980
1119   0.07935   0.89557   -0.40507   0.18491   0.07935   0.89557   -0.40507   0.18491   102.09961
1120   0.07936   0.89566   -0.40480   0.18461   0.07936   0.89566   -0.40480   0.18461   102.10876
1121   0.07929   0.89560   -0.40504   0.18455   0.07929   0.89560   -0.40504   0.18455   102.16980
1122   0.07927   0.89547   -0.40535   0.18485   0.07927   0.89547   -0.40535   0.18485   102.14539
1123   0.07922   0.89547   -0.40529   0.18467   0.07922   0.89547   -0.40529   0.18467   102.14844
1124   0.07927   0.89526   -0.40556   0.18516   0.07927   0.89526   -0.40556   0.18516   102.18201
1125   0.07922   0.89599   -0.40361   0.18558   0.07922   0.89599   -0.40361   0.18558   102.18201
1126   0.07914   0.89523   -0.40522   0.18561   0.07914   0.89523   -0.40522   0.18561   102.06909
1127   0.07916   0.89523   -0.40559   0.18546   0.07916   0.89523   -0.40559   0.18546   102.12708
1128   0.07931   0.89505   -0.40602   0.18537   0.07931   0.89505   -0.40602   0.18537   102.21558
1129   0.07939   0.89517   -0.40574   0.18470   0.07939   0.89517   -0.40574   0.18470   102.16675
1130   0.07940   0.89581   -0.40422   0.18561   0.07940   0.89581   -0.40422   0.18561   102.06299
1131   0.07933   0.89557   -0.40541   0.18412   0.07933   0.89557   -0.40541   0.18412   102.12097
1132   0.07926   0.89605   -0.40385   0.18497   0.07926   0.89605   -0.40385   0.18497   102.20337
1133   0.07940   0.89554   -0.40501   0.18528   0.07940   0.89554   -0.40501   0.18528   102.10876
1134   0.07943   0.89581   -0.40431   0.18546   0.07943   0.89581   -0.40431   0.18546   102.10876
1135   0.07935   0.89523   -0.40553   0.18506   0.07935   0.89523   -0.40553   0.18506   102.16675
1136   0.07918   0.89514   -0.40593   0.18485   0.07918   0.89514   -0.40593   0.18485   102.24304
1137   0.07929   0.89584   -0.40428   0.18543   0.07929   0.89584   -0.40428   0.18543   102.09961
1138   0.07938   0.89535   -0.40550   0.18525   0.07938   0.89535   -0.40550   0.18525   102.03857
1139   0.07928   0.89526   -0.40632   0.18366   0.07928   0.89526   -0.40632   0.18366   102.14539
1140   0.07922   0.89526   -0.40574   0.18458   0.07922   0.89526   -0.40574   0.18458   102.22778
1141   0.07934   0.89526   -0.40629   0.18363   0.07934   0.89526   -0.40629   0.18363   102.09961
1142   0.07938   0.89581   -0.40446   0.18531   0.07938   0.89581   -0.40446   0.18531   102.05078
1143   0.07932   0.89538   -0.40538   0.18473   0.07932   0.89538   -0.40538   0.18473   102.16980
1144   0.07932   0.89520   -0.40614   0.18394   0.07932   0.89520   -0.40614   0.18394   102.17896
1145   0.07948   0.89557   -0.40510   0.18500   0.07948   0.89557   -0.40510   0.18500   102.05994
1146   0.07949   0.89605   -0.40403   0.18458   0.07949   0.89605   -0.40403   0.18458   102.09351
1147   0.07924   0.89599   -0.40446   0.18421   0.07924   0.89599   -0.40446   0.18421   102.20642
1148   0.07921   0.89566   -0.40452   0.18549   0.07921   0.89566   -0.40452   0.18549   102.16064
1149   0.07933   0.89538   -0.40529   0.18506   0.07933   0.89538   -0.40529   0.18506   102.11182
1150   0.07933   0.89538   -0.40559   0.18461   0.07933   0.89538   -0.40559   0.18461   102.14539
1151   0.07926   0.89563   -0.40516   0.18442   0.07926   0.89563   -0.40516   0.18442   102.20337
1152   0.07930   0.89541   -0.40513   0.18522   0.07930   0.89541   -0.40513   0.18522   102.08740
1153   0.07921   0.89581   -0.40498   0.18394   0.07921   0.89581   -0.40498   0.18394   102.12402
1154   0.07928   0.89520   -0.40614   0.18458   0.07928   0.89520   -0.40614   0.18458   102.16980
1155   0.07929   0.89532   -0.40501   0.18564   0.07929   0.89532   -0.40501   0.18564   102.12402
1156   0.07934   0.89529   -0.40556   0.18488   0.07934   0.89529   -0.40556   0.18488   102.08740
1157   0.07926   0.89557   -0.40492   0.18488   0.07926   0.89557   -0.40492   0.18488   102.16980
1158   0.07926   0.89511   -0.40638   0.18412   0.07926   0.89511   -0.40638   0.18412   102.22778
1159   0.07933   0.89520   -0.40526   0.18607   0.07933   0.89520   -0.40526   0.18607   102.13318
1160   0.07938   0.89538   -0.40510   0.18513   0.07938   0.89538   -0.40510   0.18513   102.07520
1161   0.07941   0.89514   -0.40565   0.18540   0.07941   0.89514   -0.40565   0.18540   102.18811
1162   0.07941   0.89447   -0.40794   0.18314   0.07941   0.89447   -0.40794   0.18314   102.25830
1163   0.07919   0.89544   -0.40541   0.18506   0.07919   0.89544   -0.40541   0.18506   102.06909
1164   0.07904   0.89508   -0.40602   0.18482   0.07904   0.89508   -0.40602   0.18482   102.08435
1165   0.07928   0.89483   -0.40657   0.18464   0.07928   0.89483   -0.40657   0.18464   102.19421
1166   0.07924   0.89471   -0.40663   0.18528   0.07924   0.89471   -0.40663   0.18528   102.23999
1167   0.07924   0.89483   -0.40687   0.18451   0.07924   0.89483   -0.40687   0.18451   102.09045
1168   0.07917   0.89541   -0.40565   0.18421   0.07917   0.89541   -0.40565   0.18421   102.11487
1169   0.07923   0.89547   -0.40574   0.18400   0.07923   0.89547   -0.40574   0.18400   102.16980
1170   0.07930   0.89529   -0.40574   0.18482   0.07930   0.89529   -0.40574   0.18482   102.12402
1171   0.07932   0.89511   -0.40547   0.18574   0.07932   0.89511   -0.40547   0.18574   102.07520
1172   0.07932   0.89541   -0.40541   0.18503   0.07932   0.89541   -0.40541   0.18503   102.12097
1173   0.07930   0.89492   -0.40654   0.18442   0.07930   0.89492   -0.40654   0.18442   102.22778
1174   0.07930   0.89541   -0.40541   0.18488   0.07930   0.89541   -0.40541   0.18488   102.14539
1175   0.07935   0.89486   -0.40635   0.18516   0.07935   0.89486   -0.40635   0.18516   102.09961
1176   0.07929   0.89520   -0.40584   0.18482   0.07929   0.89520   -0.40584   0.18482   102.14539
1177   0.07922   0.89508   -0.40675   0.18369   0.07922   0.89508   -0.40675   0.18369   102.16064
1178   0.07922   0.89471   -0.40736   0.18406   0.07922   0.89471   -0.40736   0.18406   102.14844
1179   0.07928   0.89514   -0.40611   0.18497   0.07928   0.89514   -0.40611   0.18497   102.08740
1180   0.07926   0.89489   -0.40654   0.18421   0.07926   0.89489   -0.40654   0.18421   102.19421
1181   0.07926   0.89496   -0.40641   0.18528   0.07926   0.89496   -0.40641   0.18528   102.15759
1182   0.07929   0.89480   -0.40657   0.18534   0.07929   0.89480   -0.40657   0.18534   102.13623
1183   0.07928   0.89471   -0.40666   0.18549   0.07928   0.89471   -0.40666   0.18549   102.15759
1184   0.07931   0.89502   -0.40651   0.18424   0.07931   0.89502   -0.40651   0.18424   102.17896
1185   0.07933   0.89462   -0.40733   0.18412   0.07933   0.89462   -0.40733   0.18412   102.13318
1186   0.07933   0.89425   -0.40754   0.18525   0.07933   0.89425   -0.40754   0.18525   102.11182
1187   0.07931   0.89499   -0.40638   0.18509   0.07931   0.89499   -0.40638   0.18509   102.13318
1188   0.07930   0.89492   -0.40675   0.18430   0.07930   0.89492   -0.40675   0.18430   102.21558
1189   0.07936   0.89471   -0.40681   0.18497   0.07936   0.89471   -0.40681   0.18497   102.10876
1190   0.07931   0.89480   -0.40678   0.18412   0.07931   0.89480   -0.40678   0.18412   102.15759
1191   0.07915   0.89492   -0.40638   0.18485   0.07915   0.89492   -0.40638   0.18485   102.23083
1192   0.07922   0.89511   -0.40620   0.18421   0.07922   0.89511   -0.40620   0.18421   102.16980
1193   0.07933   0.89468   -0.40696   0.18470   0.07933   0.89468   -0.40696   0.18470   102.07520
1194   0.07923   0.89477   -0.40666   0.18509   0.07923   0.89477   -0.40666   0.18509   102.16064
1195   0.07920   0.89462   -0.40678   0.18549   0.07920   0.89462   -0.40678   0.18549   102.23999
1196   0.07927   0.89483   -0.40629   0.18555   0.07927   0.89483   -0.40629   0.18555   102.09961
1197   0.07938   0.89511   -0.40632   0.18421   0.07938   0.89511   -0.40632   0.18421   102.05078
1198   0.07928   0.89483   -0.40675   0.18445   0.07928   0.89483   -0.40675   0.18445   102.16980
1199   0.07924   0.89456   -0.40721   0.18488   0.07924   0.89456   -0.40721   0.18488   102.21558
1200   0.07934   0.89462   -0.40660   0.18555   0.07934   0.89462   -0.40660   0.18555   102.12097
1201   0.07936   0.89480   -0.40693   0.18473   0.07936   0.89480   -0.40693   0.18473   102.08740
1202   0.07930   0.89441   -0.40748   0.18476   0.07930   0.89441   -0.40748   0.18476   102.19116
1203   0.07924   0.89480   -0.40587   0.18625   0.07924   0.89480   -0.40587   0.18625   102.20642
1204   0.07935   0.89474   -0.40681   0.18519   0.07935   0.89474   -0.40681   0.18519   102.06299
1205   0.07926   0.89474   -0.40675   0.18516   0.07926   0.89474   -0.40675   0.18516   102.07825
1206   0.07921   0.89459   -0.40709   0.18461   0.07921   0.89459   -0.40709   0.18461   102.18201
1207   0.07925   0.89444   -0.40742   0.18497   0.07925   0.89444   -0.40742   0.18497   102.13623
1208   0.07931   0.89486   -0.40605   0.18625   0.07931   0.89486   -0.40605   0.18625   102.07520
1209   0.07931   0.89520   -0.40568   0.18503   0.07931   0.89520   -0.40568   0.18503   102.11182
1210   0.07922   0.89492   -0.40626   0.18543   0.07922   0.89492   -0.40626   0.18543   102.21863
1211   0.07933   0.89480   -0.40605   0.18580   0.07933   0.89480   -0.40605   0.18580   102.12097
1212   0.07937   0.89480   -0.40669   0.18519   0.07937   0.89480   -0.40669   0.18519   102.10876
1213   0.07934   0.89474   -0.40788   0.18274   0.07934   0.89474   -0.40788   0.18274   102.13318
1214   0.07928   0.89496   -0.40660   0.18406   0.07928   0.89496   -0.40660   0.18406   102.18201
1215   0.07939   0.89496   -0.40657   0.18455   0.07939   0.89496   -0.40657   0.18455   102.06299
1216   0.07936   0.89496   -0.40587   0.18534   0.07936   0.89496   -0.40587   0.18534   102.10876
1217   0.07927   0.89523   -0.40547   0.18540   0.07927   0.89523   -0.40547   0.18540   102.15759
1218   0.07927   0.89480   -0.40699   0.18464   0.07927   0.89480   -0.40699   0.18464   102.13623
1219   0.07927   0.89441   -0.40767   0.18421   0.07927   0.89441   -0.40767   0.18421   102.12402
1220   0.07926   0.89499   -0.40614   0.18525   0.07926   0.89499   -0.40614   0.18525   102.11182
1221   0.07922   0.89505   -0.40605   0.18467   0.07922   0.89505   -0.40605   0.18467   102.18201
1222   0.07929   0.89474   -0.40645   0.18607   0.07929   0.89474   -0.40645   0.18607   102.13623
1223   0.07933   0.89465   -0.40675   0.18540   0.07933   0.89465   -0.40675   0.18540   102.09961
1224   0.07927   0.89447   -0.40748   0.18445   0.07927   0.89447   -0.40748   0.18445   102.18201
1225   0.07927   0.89459   -0.40730   0.18455   0.07927   0.89459   -0.40730   0.18455   102.21558
1226   0.07941   0.89465   -0.40599   0.18677   0.07941   0.89465   -0.40599   0.18677   102.06299
1227   0.07947   0.89459   -0.40715   0.18534   0.07947   0.89459   -0.40715   0.18534   102.09656
1228   0.07931   0.89447   -0.40703   0.18522   0.07931   0.89447   -0.40703   0.18522   102.22778
1229   0.07930   0.89444   -0.40727   0.18488   0.07930   0.89444   -0.40727   0.18488   102.20337
1230   0.07934   0.89468   -0.40641   0.18577   0.07934   0.89468   -0.40641   0.18577   102.07520
1231   0.07932   0.89462   -0.40678   0.18546   0.07932   0.89462   -0.40678   0.18546   102.12097
1232   0.07916   0.89447   -0.40736   0.18497   0.07916   0.89447   -0.40736   0.18497   102.23083
1233   0.07916   0.89486   -0.40632   0.18528   0.07916   0.89486   -0.40632   0.18528   102.16064
1234   0.07933   0.89511   -0.40587   0.18528   0.07933   0.89511   -0.40587   0.18528   102.01721
1235   0.07924   0.89453   -0.40730   0.18464   0.07924   0.89453   -0.40730   0.18464   102.16980
1236   0.07918   0.89502   -0.40635   0.18500   0.07918   0.89502   -0.40635   0.18500   102.24304
1237   0.07927   0.89502   -0.40608   0.18555   0.07927   0.89502   -0.40608   0.18555   102.11182
1238   0.07932   0.89480   -0.40648   0.18567   0.07932   0.89480   -0.40648   0.18567   102.06604
1239   0.07929   0.89444   -0.40751   0.18473   0.07929   0.89444   -0.40751   0.18473   102.15759
1240   0.07925   0.89492   -0.40651   0.18470   0.07925   0.89492   -0.40651   0.18470   102.18201
1241   0.07936   0.89462   -0.40712   0.18470   0.07936   0.89462   -0.40712   0.18470   102.10876
1242   0.07933   0.89447   -0.40751   0.18436   0.07933   0.89447   -0.40751   0.18436   102.11182
1243   0.07931   0.89444   -0.40748   0.18485   0.07931   0.89444   -0.40748   0.18485   102.16980
1244   0.07922   0.89477   -0.40678   0.18482   0.07922   0.89477   -0.40678   0.18482   102.22778
1245   0.07908   0.89550   -0.40498   0.18503   0.07908   0.89550   -0.40498   0.18503   102.09351
1246   0.07903   0.89505   -0.40638   0.18476   0.07903   0.89505   -0.40638   0.18476   102.09656
1247   0.07924   0.89456   -0.40742   0.18458   0.07924   0.89456   -0.40742   0.18458   102.15759
1248   0.07929   0.89508   -0.40614   0.18482   0.07929   0.89508   -0.40614   0.18482   102.14539
1249   0.07922   0.89499   -0.40660   0.18436   0.07922   0.89499   -0.40660   0.18436   102.07825
1250   0.07916   0.89477   -0.40678   0.18476   0.07916   0.89477   -0.40678   0.18476   102.17285
1251   0.07920   0.89480   -0.40672   0.18409   0.07920   0.89480   -0.40672   0.18409   102.19421
1252   0.07933   0.89483   -0.40678   0.18436   0.07933   0.89483   -0.40678   0.18436   102.11182
1253   0.07928   0.89517   -0.40626   0.18387   0.07928   0.89517   -0.40626   0.18387   102.14539
1254   0.07922   0.89514   -0.40648   0.18409   0.07922   0.89514   -0.40648   0.18409   102.16980
1255   0.07928   0.89492   -0.40666   0.18394   0.07928   0.89492   -0.40666   0.18394   102.16980
1256   0.07937   0.89499   -0.40617   0.18537   0.07937   0.89499   -0.40617   0.18537   102.06299
1257   0.07930   0.89520   -0.40614   0.18436   0.07930   0.89520   -0.40614   0.18436   102.15759
1258   0.07924   0.89520   -0.40584   0.18482   0.07924   0.89520   -0.40584   0.18482   102.20642
1259   0.07924   0.89502   -0.40608   0.18509   0.07924   0.89502   -0.40608   0.18509   102.14844
1260   0.07925   0.89547   -0.40568   0.18400   0.07925   0.89547   -0.40568   0.18400   102.09045
1261   0.07928   0.89489   -0.40669   0.18427   0.07928   0.89489   -0.40669   0.18427   102.18201
1262   0.07927   0.89532   -0.40547   0.18509   0.07927   0.89532   -0.40547   0.18509   102.18201
1263   0.07937   0.89520   -0.40635   0.18394   0.07937   0.89520   -0.40635   0.18394   102.05078
1264   0.07934   0.89492   -0.40629   0.18455   0.07934   0.89492   -0.40629   0.18455   102.12097
1265   0.07928   0.89453   -0.40724   0.18470   0.07928   0.89453   -0.40724   0.18470   102.19421
1266   0.07933   0.89502   -0.40605   0.18528   0.07933   0.89502   -0.40605   0.18528   102.20337
1267   0.07945   0.89477   -0.40645   0.18558   0.07945   0.89477   -0.40645   0.18558   102.09656
1268   0.07942   0.89550   -0.40522   0.18464   0.07942   0.89550   -0.40522   0.18464   102.08435
1269   0.07925   0.89502   -0.40577   0.18577   0.07925   0.89502   -0.40577   0.18577   102.23999
1270   0.07937   0.89474   -0.40727   0.18397   0.07937   0.89474   -0.40727   0.18397   102.16675
1271   0.07943   0.89541   -0.40553   0.18464   0.07943   0.89541   -0.40553   0.18464   102.07214
1272   0.07929   0.89517   -0.40611   0.18427   0.07929   0.89517   -0.40611   0.18427   102.12402
1273   0.07922   0.89547   -0.40532   0.18464   0.07922   0.89547   -0.40532   0.18464   102.25220
1274   0.07923   0.89538   -0.40538   0.18482   0.07923   0.89538   -0.40538   0.18482   102.14844
1275   0.07934   0.89492   -0.40626   0.18522   0.07934   0.89492   -0.40626   0.18522   102.10876
1276   0.07930   0.89554   -0.40550   0.18455   0.07930   0.89554   -0.40550   0.18455   102.11182
1277   0.07922   0.89575   -0.40483   0.18473   0.07922   0.89575   -0.40483   0.18473   102.22778
1278   0.07931   0.89560   -0.40471   0.18525   0.07931   0.89560   -0.40471   0.18525   102.11182
1279   0.07933   0.89535   -0.40580   0.18448   0.07933   0.89535   -0.40580   0.18448   102.12097
1280   0.07929   0.89505   -0.40596   0.18506   0.07929   0.89505   -0.40596   0.18506   102.18201
1281   0.07931   0.89514   -0.40635   0.18424   0.07931   0.89514   -0.40635   0.18424   102.17896
1282   0.07934   0.89514   -0.40580   0.18546   0.07934   0.89514   -0.40580   0.18546   102.14539
1283   0.07933   0.89572   -0.40522   0.18363   0.07933   0.89572   -0.40522   0.18363   102.15759
1284   0.07933   0.89514   -0.40632   0.18381   0.07933   0.89514   -0.40632   0.18381   102.20337
1285   0.07935   0.89511   -0.40626   0.18412   0.07935   0.89511   -0.40626   0.18412   102.10876
1286   0.07931   0.89550   -0.40553   0.18384   0.07931   0.89550   -0.40553   0.18384   102.13318
1287   0.07922   0.89526   -0.40620   0.18354   0.07922   0.89526   -0.40620   0.18354   102.19421
1288   0.07920   0.89517   -0.40580   0.18497   0.07920   0.89517   -0.40580   0.18497   102.17285
1289   0.07933   0.89557   -0.40516   0.18439   0.07933   0.89557   -0.40516   0.18439   102.08740
1290   0.07928   0.89514   -0.40593   0.18461   0.07928   0.89514   -0.40593   0.18461   102.15759
1291   0.07923   0.89532   -0.40516   0.18540   0.07923   0.89532   -0.40516   0.18540   102.20642
1292   0.07930   0.89511   -0.40648   0.18369   0.07930   0.89511   -0.40648   0.18369   102.16980
1293   0.07938   0.89523   -0.40544   0.18552   0.07938   0.89523   -0.40544   0.18552   102.05078
1294   0.07933   0.89520   -0.40544   0.18537   0.07933   0.89520   -0.40544   0.18537   102.15759
1295   0.07925   0.89505   -0.40617   0.18464   0.07925   0.89505   -0.40617   0.18464   102.21558
1296   0.07933   0.89496   -0.40623   0.18540   0.07933   0.89496   -0.40623   0.18540   102.11182
1297   0.07936   0.89511   -0.40596   0.18509   0.07936   0.89511   -0.40596   0.18509   102.06299
1298   0.07933   0.89499   -0.40648   0.18412   0.07933   0.89499   -0.40648   0.18412   102.20337
1299   0.07924   0.89523   -0.40587   0.18461   0.07924   0.89523   -0.40587   0.18461   102.25220
1300   0.07933   0.89489   -0.40684   0.18442   0.07933   0.89489   -0.40684   0.18442   102.12097
1301   0.07927   0.89535   -0.40547   0.18458   0.07927   0.89535   -0.40547   0.18458   102.05383
1302   0.07925   0.89511   -0.40577   0.18473   0.07925   0.89511   -0.40577   0.18473   102.19421
1303   0.07922   0.89557   -0.40516   0.18451   0.07922   0.89557   -0.40516   0.18451   102.16980
1304   0.07932   0.89523   -0.40587   0.18479   0.07932   0.89523   -0.40587   0.18479   102.06604
1305   0.07934   0.89502   -0.40602   0.18546   0.07934   0.89502   -0.40602   0.18546   102.08740
1306   0.07927   0.89514   -0.40605   0.18461   0.07927   0.89514   -0.40605   0.18461   102.16980
1307   0.07931   0.89505   -0.40632   0.18442   0.07931   0.89505   -0.40632   0.18442   102.15759
1308   0.07936   0.89544   -0.40574   0.18390   0.07936   0.89544   -0.40574   0.18390   102.09961
1309   0.07935   0.89511   -0.40587   0.18494   0.07935   0.89511   -0.40587   0.18494   102.13318
1310   0.07931   0.89489   -0.40678   0.18424   0.07931   0.89489   -0.40678   0.18424   102.17896
1311   0.07932   0.89511   -0.40608   0.18509   0.07932   0.89511   -0.40608   0.18509   102.12097
1312   0.07940   0.89505   -0.40587   0.18519   0.07940   0.89505   -0.40587   0.18519   102.13318
1313   0.07930   0.89535   -0.40577   0.18430   0.07930   0.89535   -0.40577   0.18430   102.20337
1314   0.07923   0.89526   -0.40562   0.18500   0.07923   0.89526   -0.40562   0.18500   102.16980
1315   0.07918   0.89511   -0.40574   0.18503   0.07918   0.89511   -0.40574   0.18503   102.14844
1316   0.07928   0.89550   -0.40577   0.18363   0.07928   0.89550   -0.40577   0.18363   102.12402
1317   0.07923   0.89517   -0.40608   0.18488   0.07923   0.89517   -0.40608   0.18488   102.16980
1318   0.07923   0.89532   -0.40559   0.18497   0.07923   0.89532   -0.40559   0.18497   102.13623
1319   0.07932   0.89520   -0.40605   0.18424   0.07932   0.89520   -0.40605   0.18424   102.09961
1320   0.07929   0.89505   -0.40635   0.18485   0.07929   0.89505   -0.40635   0.18485   102.13623
1321   0.07926   0.89529   -0.40587   0.18427   0.07926   0.89529   -0.40587   0.18427   102.21558
1322   0.07933   0.89550   -0.40513   0.18494   0.07933   0.89550   -0.40513   0.18494   102.11182
1323   0.07935   0.89547   -0.40477   0.18574   0.07935   0.89547   -0.40477   0.18574   102.13318
1324   0.07933   0.89550   -0.40617   0.18284   0.07933   0.89550   -0.40617   0.18284   102.15759
1325   0.07925   0.89520   -0.40562   0.18509   0.07925   0.89520   -0.40562   0.18509   102.20642
1326   0.07921   0.89538   -0.40513   0.18506   0.07921   0.89538   -0.40513   0.18506   102.09045
1327   0.07917   0.89511   -0.40654   0.18372   0.07917   0.89511   -0.40654   0.18372   102.10266
1328   0.07923   0.89517   -0.40602   0.18467   0.07923   0.89517   -0.40602   0.18467   102.20642
1329   0.07922   0.89474   -0.40654   0.18500   0.07922   0.89474   -0.40654   0.18500   102.19421
1330   0.07932   0.89508   -0.40602   0.18494   0.07932   0.89508   -0.40602   0.18494   102.06604
1331   0.07922   0.89511   -0.40638   0.18442   0.07922   0.89511   -0.40638   0.18442   102.14844
1332   0.07922   0.89514   -0.40666   0.18317   0.07922   0.89514   -0.40666   0.18317   102.20642
1333   0.07933   0.89526   -0.40553   0.18497   0.07933   0.89526   -0.40553   0.18497   102.13318
1334   0.07939   0.89541   -0.40556   0.18467   0.07939   0.89541   -0.40556   0.18467   102.08740
1335   0.07932   0.89508   -0.40626   0.18455   0.07932   0.89508   -0.40626   0.18455   102.15759
1336   0.07926   0.89483   -0.40635   0.18503   0.07926   0.89483   -0.40635   0.18503   102.22778
1337   0.07934   0.89508   -0.40608   0.18445   0.07934   0.89508   -0.40608   0.18445   102.14539
1338   0.07938   0.89511   -0.40608   0.18455   0.07938   0.89511   -0.40608   0.18455   102.08740
1339   0.07930   0.89535   -0.40596   0.18412   0.07930   0.89535   -0.40596   0.18412   102.18201
1340   0.07927   0.89492   -0.40663   0.18442   0.07927   0.89492   -0.40663   0.18442   102.20337
1341   0.07928   0.89541   -0.40568   0.18415   0.07928   0.89541   -0.40568   0.18415   102.09961
1342   0.07926   0.89569   -0.40495   0.18412   0.07926   0.89569   -0.40495   0.18412   102.07825
1343   0.07918   0.89511   -0.40654   0.18387   0.07918   0.89511   -0.40654   0.18387   102.20642
1344   0.07924   0.89544   -0.40526   0.18470   0.07924   0.89544   -0.40526   0.18470   102.16980
1345   0.07936   0.89532   -0.40587   0.18451   0.07936   0.89532   -0.40587   0.18451   102.07520
1346   0.07937   0.89529   -0.40577   0.18467   0.07937   0.89529   -0.40577   0.18467   102.16675
1347   0.07922   0.89505   -0.40638   0.18433   0.07922   0.89505   -0.40638   0.18433   102.19421
1348   0.07916   0.89508   -0.40632   0.18445   0.07916   0.89508   -0.40632   0.18445   102.12708
1349   0.07934   0.89535   -0.40562   0.18467   0.07934   0.89535   -0.40562   0.18467   102.13318
1350   0.07940   0.89535   -0.40568   0.18409   0.07940   0.89535   -0.40568   0.18409   102.18811
1351   0.07941   0.89532   -0.40571   0.18467   0.07941   0.89532   -0.40571   0.18467   102.13013
1352   0.07935   0.89514   -0.40605   0.18485   0.07935   0.89514   -0.40605   0.18485   102.09961
1353   0.07927   0.89554   -0.40550   0.18455   0.07927   0.89554   -0.40550   0.18455   102.14539
1354   0.07929   0.89526   -0.40641   0.18311   0.07929   0.89526   -0.40641   0.18311   102.22778
1355   0.07934   0.89584   -0.40477   0.18439   0.07934   0.89584   -0.40477   0.18439   102.12097
1356   0.07929   0.89529   -0.40562   0.18458   0.07929   0.89529   -0.40562   0.18458   102.09961
1357   0.07922   0.89511   -0.40675   0.18323   0.07922   0.89511   -0.40675   0.18323   102.16064
1358   0.07919   0.89511   -0.40654   0.18394   0.07919   0.89511   -0.40654   0.18394   102.20642
1359   0.07932   0.89535   -0.40590   0.18357   0.07932   0.89535   -0.40590   0.18357   102.11182
1360   0.07934   0.89492   -0.40663   0.18427   0.07934   0.89492   -0.40663   0.18427   102.10876
1361   0.07934   0.89505   -0.40654   0.18390   0.07934   0.89505   -0.40654   0.18390   102.22473
1362   0.07940   0.89541   -0.40611   0.18366   0.07940   0.89541   -0.40611   0.18366   102.18811
1363   0.07925   0.89541   -0.40498   0.18564   0.07925   0.89541   -0.40498   0.18564   102.09961
1364   0.07913   0.89554   -0.40574   0.18332   0.07913   0.89554   -0.40574   0.18332   102.13928
1365   0.07928   0.89612   -0.40410   0.18461   0.07928   0.89612   -0.40410   0.18461   102.20337
1366   0.07934   0.89572   -0.40461   0.18506   0.07934   0.89572   -0.40461   0.18506   102.17896
1367   0.07929   0.89569   -0.40504   0.18381   0.07929   0.89569   -0.40504   0.18381   102.12402
1368   0.07922   0.89572   -0.40562   0.18299   0.07922   0.89572   -0.40562   0.18299   102.11487
1369   0.07920   0.89511   -0.40672   0.18332   0.07920   0.89511   -0.40672   0.18332   102.21863
1370   0.07917   0.89499   -0.40620   0.18467   0.07917   0.89499   -0.40620   0.18467   102.17285
1371   0.07926   0.89520   -0.40596   0.18455   0.07926   0.89520   -0.40596   0.18455   102.09045
1372   0.07920   0.89508   -0.40605   0.18503   0.07920   0.89508   -0.40605   0.18503   102.14844
1373   0.07918   0.89505   -0.40590   0.18540   0.07918   0.89505   -0.40590   0.18540   102.20642
1374   0.07925   0.89492   -0.40632   0.18500   0.07925   0.89492   -0.40632   0.18500   102.15759
1375   0.07927   0.89468   -0.40693   0.18479   0.07927   0.89468   -0.40693   0.18479   102.14539
1376   0.07926   0.89492   -0.40684   0.18427   0.07926   0.89492   -0.40684   0.18427   102.15759
1377   0.07924   0.89520   -0.40571   0.18455   0.07924   0.89520   -0.40571   0.18455   102.16980
1378   0.07932   0.89508   -0.40617   0.18458   0.07932   0.89508   -0.40617   0.18458   102.12097
1379   0.07929   0.89508   -0.40645   0.18421   0.07929   0.89508   -0.40645   0.18421   102.16980
1380   0.07929   0.89563   -0.40519   0.18375   0.07929   0.89563   -0.40519   0.18375   102.18201
1381   0.07934   0.89517   -0.40587   0.18513   0.07934   0.89517   -0.40587   0.18513   102.07520
1382   0.07932   0.89529   -0.40556   0.18509   0.07932   0.89529   -0.40556   0.18509   102.11182
1383   0.07921   0.89508   -0.40635   0.18442   0.07921   0.89508   -0.40635   0.18442   102.20642
1384   0.07918   0.89538   -0.40602   0.18345   0.07918   0.89538   -0.40602   0.18345   102.14844
1385   0.07930   0.89514   -0.40541   0.18586   0.07930   0.89514   -0.40541   0.18586   102.11182
1386   0.07924   0.89520   -0.40593   0.18427   0.07924   0.89520   -0.40593   0.18427   102.15759
1387   0.07922   0.89541   -0.40654   0.18268   0.07922   0.89541   -0.40654   0.18268   102.20642
1388   0.07929   0.89505   -0.40672   0.18381   0.07929   0.89505   -0.40672   0.18381   102.14539
1389   0.07935   0.89569   -0.40501   0.18424   0.07935   0.89569   -0.40501   0.18424   102.05078
1390   0.07928   0.89514   -0.40590   0.18439   0.07928   0.89514   -0.40590   0.18439   102.19421
1391   0.07923   0.89532   -0.40590   0.18400   0.07923   0.89532   -0.40590   0.18400   102.21558
1392   0.07931   0.89541   -0.40544   0.18439   0.07931   0.89541   -0.40544   0.18439   102.15759
1393   0.07937   0.89557   -0.40529   0.18451   0.07937   0.89557   -0.40529   0.18451   102.06299
1394   0.07930   0.89557   -0.40501   0.18497   0.07930   0.89557   -0.40501   0.18497   102.19116
1395   0.07925   0.89526   -0.40556   0.18464   0.07925   0.89526   -0.40556   0.18464   102.21558
1396   0.07931   0.89560   -0.40440   0.18595   0.07931   0.89560   -0.40440   0.18595   102.07520
1397   0.07926   0.89529   -0.40568   0.18519   0.07926   0.89529   -0.40568   0.18519   102.05383
1398   0.07916   0.89508   -0.40657   0.18375   0.07916   0.89508   -0.40657   0.18375   102.21863
1399   0.07921   0.89508   -0.40663   0.18329   0.07921   0.89508   -0.40663   0.18329   102.18201
1400   0.07930   0.89550   -0.40489   0.18525   0.07930   0.89550   -0.40489   0.18525   102.07825
1401   0.07931   0.89572   -0.40428   0.18564   0.07931   0.89572   -0.40428   0.18564   102.09961
1402   0.07922   0.89563   -0.40504   0.18476   0.07922   0.89563   -0.40504   0.18476   102.19421
1403   0.07928   0.89511   -0.40562   0.18549   0.07928   0.89511   -0.40562   0.18549   102.13623
1404   0.07934   0.89569   -0.40526   0.18427   0.07934   0.89569   -0.40526   0.18427   102.10876
1405   0.07933   0.89569   -0.40477   0.18491   0.07933   0.89569   -0.40477   0.18491   102.13318
1406   0.07929   0.89511   -0.40605   0.18461   0.07929   0.89511   -0.40605   0.18461   102.19116
1407   0.07933   0.89566   -0.40464   0.18561   0.07933   0.89566   -0.40464   0.18561   102.08740
1408   0.07933   0.89538   -0.40529   0.18494   0.07933   0.89538   -0.40529   0.18494   102.12097
1409   0.07930   0.89523   -0.40614   0.18445   0.07930   0.89523   -0.40614   0.18445   102.14539
1410   0.07923   0.89544   -0.40486   0.18577   0.07923   0.89544   -0.40486   0.18577   102.19421
1411   0.07925   0.89529   -0.40544   0.18564   0.07925   0.89529   -0.40544   0.18564   102.09961
1412   0.07923   0.89526   -0.40529   0.18552   0.07923   0.89526   -0.40529   0.18552   102.16980
1413   0.07923   0.89560   -0.40544   0.18400   0.07923   0.89560   -0.40544   0.18400   102.16980
1414   0.07925   0.89541   -0.40513   0.18555   0.07925   0.89541   -0.40513   0.18555   102.11182
1415   0.07932   0.89547   -0.40507   0.18482   0.07932   0.89547   -0.40507   0.18482   102.08740
1416   0.07931   0.89511   -0.40660   0.18369   0.07931   0.89511   -0.40660   0.18369   102.15759
1417   0.07929   0.89547   -0.40529   0.18491   0.07929   0.89547   -0.40529   0.18491   102.19116
1418   0.07937   0.89572   -0.40477   0.18458   0.07937   0.89572   -0.40477   0.18458   102.06299
1419   0.07938   0.89569   -0.40455   0.18491   0.07938   0.89569   -0.40455   0.18491   102.12097
1420   0.07929   0.89554   -0.40489   0.18516   0.07929   0.89554   -0.40489   0.18516   102.16980
1421   0.07932   0.89563   -0.40464   0.18473   0.07932   0.89563   -0.40464   0.18473   102.16980
1422   0.07939   0.89505   -0.40562   0.18574   0.07939   0.89505   -0.40562   0.18574   102.05078
1423   0.07932   0.89554   -0.40495   0.18564   0.07932   0.89554   -0.40495   0.18564   102.09961
1424   0.07922   0.89560   -0.40504   0.18497   0.07922   0.89560   -0.40504   0.18497   102.20642
1425   0.07922   0.89554   -0.40449   0.18577   0.07922   0.89554   -0.40449   0.18577   102.14844
1426   0.07939   0.89554   -0.40498   0.18503   0.07939   0.89554   -0.40498   0.18503   102.02942
1427   0.07937   0.89477   -0.40638   0.18513   0.07937   0.89477   -0.40638   0.18513   102.14539
1428   0.07927   0.89581   -0.40513   0.18366   0.07927   0.89581   -0.40513   0.18366   102.22778
1429   0.07929   0.89593   -0.40422   0.18522   0.07929   0.89593   -0.40422   0.18522   102.09961
1430   0.07937   0.89557   -0.40510   0.18442   0.07937   0.89557   -0.40510   0.18442   102.05078
1431   0.07931   0.89590   -0.40449   0.18451   0.07931   0.89590   -0.40449   0.18451   102.19116
1432   0.07927   0.89544   -0.40513   0.18488   0.07927   0.89544   -0.40513   0.18488   102.21558
1433   0.07932   0.89520   -0.40544   0.18564   0.07932   0.89520   -0.40544   0.18564   102.13318
1434   0.07932   0.89627   -0.40367   0.18390   0.07932   0.89627   -0.40367   0.18390   102.12097
1435   0.07928   0.89599   -0.40428   0.18448   0.07928   0.89599   -0.40428   0.18448   102.16980
1436   0.07928   0.89575   -0.40449   0.18540   0.07928   0.89575   -0.40449   0.18540   102.15759
1437   0.07932   0.89547   -0.40559   0.18409   0.07932   0.89547   -0.40559   0.18409   102.09961
1438   0.07927   0.89560   -0.40535   0.18403   0.07927   0.89560   -0.40535   0.18403   102.09045
1439   0.07917   0.89560   -0.40486   0.18494   0.07917   0.89560   -0.40486   0.18494   102.17285
1440   0.07927   0.89596   -0.40400   0.18558   0.07927   0.89596   -0.40400   0.18558   102.12402
1441   0.07929   0.89578   -0.40388   0.18601   0.07929   0.89578   -0.40388   0.18601   102.09961
1442   0.07926   0.89538   -0.40565   0.18445   0.07926   0.89538   -0.40565   0.18445   102.16980
1443   0.07925   0.89575   -0.40474   0.18491   0.07925   0.89575   -0.40474   0.18491   102.15759
1444   0.07931   0.89572   -0.40425   0.18601   0.07931   0.89572   -0.40425   0.18601   102.08740
1445   0.07911   0.89575   -0.40519   0.18354   0.07911   0.89575   -0.40519   0.18354   102.13928
1446   0.07912   0.89584   -0.40446   0.18464   0.07912   0.89584   -0.40446   0.18464   102.18506
1447   0.07933   0.89566   -0.40440   0.18543   0.07933   0.89566   -0.40440   0.18543   102.17896
1448   0.07941   0.89581   -0.40422   0.18552   0.07941   0.89581   -0.40422   0.18552   102.06299
1449   0.07928   0.89572   -0.40407   0.18589   0.07928   0.89572   -0.40407   0.18589   102.14539
1450   0.07921   0.89541   -0.40526   0.18485   0.07921   0.89541   -0.40526   0.18485   102.21863
1451   0.07930   0.89529   -0.40504   0.18625   0.07930   0.89529   -0.40504   0.18625   102.07825
1452   0.07928   0.89520   -0.40535   0.18558   0.07928   0.89520   -0.40535   0.18558   102.11182
1453   0.07922   0.89566   -0.40529   0.18372   0.07922   0.89566   -0.40529   0.18372   102.16064
1454   0.07915   0.89599   -0.40403   0.18506   0.07915   0.89599   -0.40403   0.18506   102.20642
1455   0.07930   0.89505   -0.40623   0.18488   0.07930   0.89505   -0.40623   0.18488   102.08740
1456   0.07934   0.89529   -0.40577   0.18461   0.07934   0.89529   -0.40577   0.18461   102.07520
1457   0.07923   0.89554   -0.40498   0.18513   0.07923   0.89554   -0.40498   0.18513   102.18201
1458   0.07926   0.89572   -0.40455   0.18503   0.07926   0.89572   -0.40455   0.18503   102.18201
1459   0.07937   0.89563   -0.40471   0.18470   0.07937   0.89563   -0.40471   0.18470   102.07520
1460   0.07933   0.89563   -0.40483   0.18506   0.07933   0.89563   -0.40483   0.18506   102.11182
1461   0.07931   0.89569   -0.40507   0.18415   0.07931   0.89569   -0.40507   0.18415   102.17896
1462   0.07937   0.89581   -0.40400   0.18522   0.07937   0.89581   -0.40400   0.18522   102.16675
1463   0.07941   0.89560   -0.40477   0.18543   0.07941   0.89560   -0.40477   0.18543   102.08435
1464   0.07937   0.89578   -0.40428   0.18564   0.07937   0.89578   -0.40428   0.18564   102.08740
1465   0.07931   0.89560   -0.40495   0.18494   0.07931   0.89560   -0.40495   0.18494   102.19116
1466   0.07927   0.89544   -0.40486   0.18577   0.07927   0.89544   -0.40486   0.18577   102.14539
1467   0.07937   0.89547   -0.40458   0.18607   0.07937   0.89547   -0.40458   0.18607   102.08740
1468   0.07931   0.89557   -0.40510   0.18458   0.07931   0.89557   -0.40510   0.18458   102.13318
1469   0.07923   0.89526   -0.40526   0.18561   0.07923   0.89526   -0.40526   0.18561   102.20642
1470   0.07936   0.89557   -0.40443   0.18598   0.07936   0.89557   -0.40443   0.18598   102.15454
1471   0.07940   0.89581   -0.40422   0.18561   0.07940   0.89581   -0.40422   0.18561   102.06299
1472   0.07933   0.89566   -0.40474   0.18464   0.07933   0.89566   -0.40474   0.18464   102.16675
1473   0.07930   0.89605   -0.40349   0.18534   0.07930   0.89605   -0.40349   0.18534   102.15759
1474   0.07939   0.89538   -0.40535   0.18525   0.07939   0.89538   -0.40535   0.18525   102.09656
1475   0.07938   0.89514   -0.40614   0.18430   0.07938   0.89514   -0.40614   0.18430   102.15454
1476   0.07933   0.89569   -0.40452   0.18500   0.07933   0.89569   -0.40452   0.18500   102.17896
1477   0.07938   0.89547   -0.40492   0.18537   0.07938   0.89547   -0.40492   0.18537   102.10876
1478   0.07933   0.89544   -0.40468   0.18625   0.07933   0.89544   -0.40468   0.18625   102.08740
1479   0.07925   0.89496   -0.40590   0.18549   0.07925   0.89496   -0.40590   0.18549   102.21558
1480   0.07922   0.89535   -0.40538   0.18497   0.07922   0.89535   -0.40538   0.18497   102.17285
1481   0.07933   0.89550   -0.40452   0.18628   0.07933   0.89550   -0.40452   0.18628   102.02942
1482   0.07930   0.89541   -0.40492   0.18564   0.07930   0.89541   -0.40492   0.18564   102.09961
1483   0.07924   0.89550   -0.40495   0.18540   0.07924   0.89550   -0.40495   0.18540   102.20642
1484   0.07930   0.89572   -0.40403   0.18586   0.07930   0.89572   -0.40403   0.18586   102.15759
1485   0.07936   0.89517   -0.40498   0.18638   0.07936   0.89517   -0.40498   0.18638   102.08740
1486   0.07935   0.89535   -0.40541   0.18549   0.07935   0.89535   -0.40541   0.18549   102.12097
1487   0.07926   0.89560   -0.40468   0.18543   0.07926   0.89560   -0.40468   0.18543   102.19421
1488   0.07937   0.89557   -0.40449   0.18564   0.07937   0.89557   -0.40449   0.18564   102.12097
1489   0.07940   0.89541   -0.40468   0.18613   0.07940   0.89541   -0.40468   0.18613   102.05078
1490   0.07937   0.89566   -0.40471   0.18522   0.07937   0.89566   -0.40471   0.18522   102.13318
1491   0.07928   0.89566   -0.40477   0.18506   0.07928   0.89566   -0.40477   0.18506   102.19421
1492   0.07932   0.89550   -0.40440   0.18690   0.07932   0.89550   -0.40440   0.18690   102.07520
1493   0.07933   0.89502   -0.40623   0.18461   0.07933   0.89502   -0.40623   0.18461   102.09961
1494   0.07921   0.89569   -0.40483   0.18528   0.07921   0.89569   -0.40483   0.18528   102.17285
1495   0.07924   0.89550   -0.40535   0.18455   0.07924   0.89550   -0.40535   0.18455   102.18201
1496   0.07933   0.89572   -0.40431   0.18583   0.07933   0.89572   -0.40431   0.18583   102.04163
1497   0.07934   0.89602   -0.40385   0.18543   0.07934   0.89602   -0.40385   0.18543   102.09961
1498   0.07927   0.89514   -0.40605   0.18461   0.07927   0.89514   -0.40605   0.18461   102.16980
1499   0.07925   0.89541   -0.40510   0.18537   0.07925   0.89541   -0.40510   0.18537   102.14844
1500   0.07934   0.89547   -0.40495   0.18571   0.07934   0.89547   -0.40495   0.18571   102.12097
1501   0.07935   0.89572   -0.40422   0.18525   0.07935   0.89572   -0.40422   0.18525   102.10876
1502   0.07932   0.89523   -0.40574   0.18448   0.07932   0.89523   -0.40574   0.18448   102.20337
1503   0.07933   0.89572   -0.40492   0.18464   0.07933   0.89572   -0.40492   0.18464   102.12097
1504   0.07939   0.89596   -0.40407   0.18525   0.07939   0.89596   -0.40407   0.18525   102.08740
1505   0.07931   0.89593   -0.40416   0.18513   0.07931   0.89593   -0.40416   0.18513   102.14539
1506   0.07925   0.89575   -0.40513   0.18351   0.07925   0.89575   -0.40513   0.18351   102.18201
1507   0.07926   0.89554   -0.40577   0.18302   0.07926   0.89554   -0.40577   0.18302   102.14844
1508   0.07922   0.89554   -0.40468   0.18549   0.07922   0.89554   -0.40468   0.18549   102.13623
1509   0.07921   0.89550   -0.40489   0.18513   0.07921   0.89550   -0.40489   0.18513   102.16064
1510   0.07922   0.89560   -0.40461   0.18503   0.07922   0.89560   -0.40461   0.18503   102.14844
1511   0.07928   0.89563   -0.40455   0.18543   0.07928   0.89563   -0.40455   0.18543   102.12402
1512   0.07922   0.89575   -0.40480   0.18433   0.07922   0.89575   -0.40480   0.18433   102.18201
1513   0.07922   0.89560   -0.40529   0.18436   0.07922   0.89560   -0.40529   0.18436   102.16980
1514   0.07931   0.89550   -0.40501   0.18513   0.07931   0.89550   -0.40501   0.18513   102.11182
1515   0.07935   0.89578   -0.40526   0.18348   0.07935   0.89578   -0.40526   0.18348   102.08740
1516   0.07926   0.89520   -0.40611   0.18415   0.07926   0.89520   -0.40611   0.18415   102.23999
1517   0.07929   0.89544   -0.40538   0.18497   0.07929   0.89544   -0.40538   0.18497   102.14539
1518   0.07936   0.89563   -0.40486   0.18497   0.07936   0.89563   -0.40486   0.18497   102.04163
1519   0.07931   0.89517   -0.40590   0.18491   0.07931   0.89517   -0.40590   0.18491   102.09961
1520   0.07922   0.89502   -0.40635   0.18421   0.07922   0.89502   -0.40635   0.18421   102.25220
1521   0.07918   0.89569   -0.40458   0.18513   0.07918   0.89569   -0.40458   0.18513   102.12708
1522   0.07927   0.89572   -0.40416   0.18580   0.07927   0.89572   -0.40416   0.18580   102.06604
1523   0.07927   0.89557   -0.40495   0.18516   0.07927   0.89557   -0.40495   0.18516   102.11182
1524   0.07915   0.89560   -0.40513   0.18430   0.07915   0.89560   -0.40513   0.18430   102.25525
1525   0.07924   0.89523   -0.40513   0.18632   0.07924   0.89523   -0.40513   0.18632   102.14844
1526   0.07917   0.89560   -0.40535   0.18400   0.07917   0.89560   -0.40535   0.18400   102.05688
1527   0.07913   0.89502   -0.40660   0.18409   0.07913   0.89502   -0.40660   0.18409   102.15149
1528   0.07927   0.89520   -0.40580   0.18485   0.07927   0.89520   -0.40580   0.18485   102.19421
1529   0.07942   0.89544   -0.40510   0.18564   0.07942   0.89544   -0.40510   0.18564   102.08435
1530   0.07938   0.89544   -0.40501   0.18558   0.07938   0.89544   -0.40501   0.18558   102.06299
1531   0.07926   0.89566   -0.40501   0.18430   0.07926   0.89566   -0.40501   0.18430   102.18201
1532   0.07928   0.89532   -0.40553   0.18482   0.07928   0.89532   -0.40553   0.18482   102.15759
1533   0.07937   0.89535   -0.40547   0.18491   0.07937   0.89535   -0.40547   0.18491   102.08740
1534   0.07933   0.89532   -0.40529   0.18516   0.07933   0.89532   -0.40529   0.18516   102.16675
1535   0.07921   0.89529   -0.40544   0.18503   0.07921   0.89529   -0.40544   0.18503   102.18201
1536   0.07927   0.89520   -0.40519   0.18598   0.07927   0.89520   -0.40519   0.18598   102.11182
1537   0.07930   0.89526   -0.40565   0.18500   0.07930   0.89526   -0.40565   0.18500   102.08740
1538   0.07933   0.89502   -0.40651   0.18439   0.07933   0.89502   -0.40651   0.18439   102.15759
1539   0.07928   0.89535   -0.40547   0.18464   0.07928   0.89535   -0.40547   0.18464   102.16980
1540   0.07931   0.89505   -0.40599   0.18549   0.07931   0.89505   -0.40599   0.18549   102.11182
1541   0.07933   0.89541   -0.40489   0.18577   0.07933   0.89541   -0.40489   0.18577   102.08740
1542   0.07933   0.89569   -0.40489   0.18412   0.07933   0.89569   -0.40489   0.18412   102.19116
1543   0.07933   0.89554   -0.40504   0.18479   0.07933   0.89554   -0.40504   0.18479   102.16675
1544   0.07936   0.89502   -0.40651   0.18424   0.07936   0.89502   -0.40651   0.18424   102.10876
1545   0.07938   0.89529   -0.40519   0.18583   0.07938   0.89529   -0.40519   0.18583   102.15454
1546   0.07941   0.89517   -0.40580   0.18525   0.07941   0.89517   -0.40580   0.18525   102.18811
1547   0.07931   0.89557   -0.40468   0.18604   0.07931   0.89557   -0.40468   0.18604   102.13318
1548   0.07919   0.89532   -0.40553   0.18485   0.07919   0.89532   -0.40553   0.18485   102.10266
1549   0.07920   0.89505   -0.40590   0.18513   0.07920   0.89505   -0.40590   0.18513   102.18201
1550   0.07933   0.89517   -0.40605   0.18451   0.07933   0.89517   -0.40605   0.18451   102.21558
1551   0.07937   0.89544   -0.40516   0.18558   0.07937   0.89544   -0.40516   0.18558   102.07520
1552   0.07932   0.89523   -0.40562   0.18528   0.07932   0.89523   -0.40562   0.18528   102.09961
1553   0.07920   0.89535   -0.40553   0.18503   0.07920   0.89535   -0.40553   0.18503   102.20642
1554   0.07930   0.89535   -0.40559   0.18491   0.07930   0.89535   -0.40559   0.18491   102.18201
1555   0.07940   0.89517   -0.40596   0.18494   0.07940   0.89517   -0.40596   0.18494   102.08435
1556   0.07933   0.89502   -0.40568   0.18543   0.07933   0.89502   -0.40568   0.18543   102.11182
1557   0.07928   0.89489   -0.40638   0.18531   0.07928   0.89489   -0.40638   0.18531   102.22778
1558   0.07928   0.89529   -0.40587   0.18427   0.07928   0.89529   -0.40587   0.18427   102.19421
1559   0.07944   0.89459   -0.40745   0.18445   0.07944   0.89459   -0.40745   0.18445   102.05078
1560   0.07933   0.89465   -0.40693   0.18479   0.07933   0.89465   -0.40693   0.18479   102.11182
1561   0.07928   0.89535   -0.40571   0.18424   0.07928   0.89535   -0.40571   0.18424   102.26135
1562   0.07936   0.89486   -0.40620   0.18571   0.07936   0.89486   -0.40620   0.18571   102.15454
1563   0.07925   0.89535   -0.40553   0.18467   0.07925   0.89535   -0.40553   0.18467   102.05383
1564   0.07910   0.89483   -0.40687   0.18442   0.07910   0.89483   -0.40687   0.18442   102.10571
1565   0.07917   0.89496   -0.40614   0.18488   0.07917   0.89496   -0.40614   0.18488   102.24304
1566   0.07932   0.89505   -0.40562   0.18558   0.07932   0.89505   -0.40562   0.18558   102.14539
1567   0.07928   0.89480   -0.40648   0.18516   0.07928   0.89480   -0.40648   0.18516   102.12402
1568   0.07922   0.89447   -0.40739   0.18491   0.07922   0.89447   -0.40739   0.18491   102.17285
1569   0.07925   0.89450   -0.40727   0.18482   0.07925   0.89450   -0.40727   0.18482   102.20642
1570   0.07935   0.89447   -0.40779   0.18424   0.07935   0.89447   -0.40779   0.18424   102.13318
1571   0.07932   0.89505   -0.40614   0.18485   0.07932   0.89505   -0.40614   0.18485   102.15759
1572   0.07928   0.89526   -0.40553   0.18528   0.07928   0.89526   -0.40553   0.18528   102.20337
1573   0.07932   0.89474   -0.40696   0.18455   0.07932   0.89474   -0.40696   0.18455   102.16980
1574   0.07934   0.89459   -0.40684   0.18549   0.07934   0.89459   -0.40684   0.18549   102.07520
1575   0.07925   0.89462   -0.40751   0.18436   0.07925   0.89462   -0.40751   0.18436   102.16980
1576   0.07918   0.89474   -0.40675   0.18540   0.07918   0.89474   -0.40675   0.18540   102.17285
1577   0.07925   0.89431   -0.40770   0.18506   0.07925   0.89431   -0.40770   0.18506   102.12402
1578   0.07930   0.89502   -0.40590   0.18543   0.07930   0.89502   -0.40590   0.18543   102.09961
1579   0.07927   0.89520   -0.40635   0.18369   0.07927   0.89520   -0.40635   0.18369   102.19421
1580   0.07929   0.89459   -0.40751   0.18427   0.07929   0.89459   -0.40751   0.18427   102.18201
1581   0.07936   0.89477   -0.40641   0.18546   0.07936   0.89477   -0.40641   0.18546   102.12097
1582   0.07934   0.89447   -0.40739   0.18537   0.07934   0.89447   -0.40739   0.18537   102.12097
1583   0.07927   0.89480   -0.40709   0.18433   0.07927   0.89480   -0.40709   0.18433   102.21558
1584   0.07934   0.89471   -0.40684   0.18473   0.07934   0.89471   -0.40684   0.18473   102.14539
1585   0.07940   0.89459   -0.40730   0.18442   0.07940   0.89459   -0.40730   0.18442   102.09656
1586   0.07935   0.89450   -0.40788   0.18400   0.07935   0.89450   -0.40788   0.18400   102.15759
1587   0.07927   0.89483   -0.40699   0.18445   0.07927   0.89483   -0.40699   0.18445   102.22778
1588   0.07931   0.89496   -0.40626   0.18543   0.07931   0.89496   -0.40626   0.18543   102.09961
1589   0.07937   0.89554   -0.40510   0.18503   0.07937   0.89554   -0.40510   0.18503   102.05078
1590   0.07920   0.89480   -0.40709   0.18345   0.07920   0.89480   -0.40709   0.18345   102.19421
1591   0.07922   0.89447   -0.40693   0.18537   0.07922   0.89447   -0.40693   0.18537   102.25220
1592   0.07929   0.89471   -0.40654   0.18574   0.07929   0.89471   -0.40654   0.18574   102.09961
1593   0.07935   0.89450   -0.40724   0.18531   0.07935   0.89450   -0.40724   0.18531   102.09961
1594   0.07926   0.89517   -0.40599   0.18473   0.07926   0.89517   -0.40599   0.18473   102.19421
1595   0.07927   0.89489   -0.40669   0.18427   0.07927   0.89489   -0.40669   0.18427   102.19421
1596   0.07939   0.89462   -0.40672   0.18540   0.07939   0.89462   -0.40672   0.18540   102.09656
1597   0.07940   0.89462   -0.40754   0.18397   0.07940   0.89462   -0.40754   0.18397   102.13318
1598   0.07933   0.89489   -0.40657   0.18439   0.07933   0.89489   -0.40657   0.18439   102.21558
1599   0.07933   0.89480   -0.40709   0.18433   0.07933   0.89480   -0.40709   0.18433   102.13318
1600   0.07941   0.89474   -0.40693   0.18479   0.07941   0.89474   -0.40693   0.18479   102.08435
1601   0.07934   0.89483   -0.40703   0.18424   0.07934   0.89483   -0.40703   0.18424   102.14539
1602   0.07925   0.89428   -0.40761   0.18537   0.07925   0.89428   -0.40761   0.18537   102.22778
1603   0.07927   0.89483   -0.40657   0.18519   0.07927   0.89483   -0.40657   0.18519   102.15759
1604   0.07923   0.89434   -0.40754   0.18500   0.07923   0.89434   -0.40754   0.18500   102.13623
1605   0.07928   0.89425   -0.40788   0.18482   0.07928   0.89425   -0.40788   0.18482   102.16980
1606   0.07923   0.89486   -0.40672   0.18461   0.07923   0.89486   -0.40672   0.18461   102.20642
1607   0.07932   0.89511   -0.40599   0.18476   0.07932   0.89511   -0.40599   0.18476   102.09961
1608   0.07933   0.89465   -0.40730   0.18458   0.07933   0.89465   -0.40730   0.18458   102.12097
1609   0.07930   0.89496   -0.40657   0.18430   0.07930   0.89496   -0.40657   0.18430   102.19116
1610   0.07933   0.89438   -0.40745   0.18516   0.07933   0.89438   -0.40745   0.18516   102.17896
1611   0.07938   0.89480   -0.40635   0.18546   0.07938   0.89480   -0.40635   0.18546   102.10876
1612   0.07934   0.89523   -0.40584   0.18497   0.07934   0.89523   -0.40584   0.18497   102.19116
1613   0.07931   0.89483   -0.40709   0.18351   0.07931   0.89483   -0.40709   0.18351   102.17896
1614   0.07941   0.89456   -0.40678   0.18543   0.07941   0.89456   -0.40678   0.18543   102.10876
1615   0.07937   0.89496   -0.40660   0.18418   0.07937   0.89496   -0.40660   0.18418   102.09656
1616   0.07929   0.89483   -0.40703   0.18409   0.07929   0.89483   -0.40703   0.18409   102.21558
1617   0.07921   0.89480   -0.40681   0.18482   0.07921   0.89480   -0.40681   0.18482   102.19421
1618   0.07932   0.89468   -0.40654   0.18577   0.07932   0.89468   -0.40654   0.18577   102.11182
1619   0.07929   0.89483   -0.40678   0.18479   0.07929   0.89483   -0.40678   0.18479   102.12402
1620   0.07924   0.89505   -0.40611   0.18455   0.07924   0.89505   -0.40611   0.18455   102.25220
1621   0.07927   0.89535   -0.40516   0.18525   0.07927   0.89535   -0.40516   0.18525   102.15759
1622   0.07938   0.89489   -0.40632   0.18491   0.07938   0.89489   -0.40632   0.18491   102.08740
1623   0.07932   0.89489   -0.40666   0.18424   0.07932   0.89489   -0.40666   0.18424   102.16980
1624   0.07927   0.89532   -0.40565   0.18464   0.07927   0.89532   -0.40565   0.18464   102.20337
1625   0.07933   0.89492   -0.40657   0.18476   0.07933   0.89492   -0.40657   0.18476   102.14539
1626   0.07945   0.89483   -0.40645   0.18509   0.07945   0.89483   -0.40645   0.18509   102.08435
1627   0.07944   0.89462   -0.40709   0.18494   0.07944   0.89462   -0.40709   0.18494   102.16675
1628   0.07935   0.89477   -0.40684   0.18436   0.07935   0.89477   -0.40684   0.18436   102.21252
1629   0.07932   0.89489   -0.40669   0.18442   0.07932   0.89489   -0.40669   0.18442   102.13318
1630   0.07937   0.89471   -0.40672   0.18516   0.07937   0.89471   -0.40672   0.18516   102.06299
1631   0.07926   0.89505   -0.40672   0.18342   0.07926   0.89505   -0.40672   0.18342   102.19421
1632   0.07921   0.89492   -0.40641   0.18461   0.07921   0.89492   -0.40641   0.18461   102.17285
1633   0.07929   0.89456   -0.40687   0.18574   0.07929   0.89456   -0.40687   0.18574   102.12402
1634   0.07929   0.89459   -0.40754   0.18433   0.07929   0.89459   -0.40754   0.18433   102.14539
1635   0.07927   0.89486   -0.40672   0.18412   0.07927   0.89486   -0.40672   0.18412   102.21558
1636   0.07927   0.89486   -0.40660   0.18479   0.07927   0.89486   -0.40660   0.18479   102.12402
1637   0.07929   0.89505   -0.40620   0.18482   0.07929   0.89505   -0.40620   0.18482   102.13623
1638   0.07930   0.89505   -0.40584   0.18534   0.07930   0.89505   -0.40584   0.18534   102.12402
1639   0.07929   0.89502   -0.40635   0.18461   0.07929   0.89502   -0.40635   0.18461   102.19116
1640   0.07935   0.89529   -0.40556   0.18445   0.07935   0.89529   -0.40556   0.18445   102.12097
1641   0.07933   0.89529   -0.40516   0.18534   0.07933   0.89529   -0.40516   0.18534   102.14539
1642   0.07932   0.89453   -0.40696   0.18555   0.07932   0.89453   -0.40696   0.18555   102.16980
1643   0.07931   0.89505   -0.40663   0.18381   0.07931   0.89505   -0.40663   0.18381   102.17896
1644   0.07930   0.89477   -0.40635   0.18543   0.07930   0.89477   -0.40635   0.18543   102.09961
1645   0.07900   0.89572   -0.40596   0.18189   0.07900   0.89572   -0.40596   0.18189   102.14233
1646   0.07903   0.89572   -0.40651   0.18128   0.07903   0.89572   -0.40651   0.18128   102.20032
1647   0.07932   0.89474   -0.40678   0.18516   0.07932   0.89474   -0.40678   0.18516   102.14539
1648   0.07934   0.89523   -0.40599   0.18400   0.07934   0.89523   -0.40599   0.18400   102.08740
1649   0.07916   0.89535   -0.40587   0.18430   0.07916   0.89535   -0.40587   0.18430   102.12708
1650   0.07913   0.89505   -0.40611   0.18497   0.07913   0.89505   -0.40611   0.18497   102.22168
1651   0.07933   0.89502   -0.40605   0.18522   0.07933   0.89502   -0.40605   0.18522   102.07520
1652   0.07936   0.89505   -0.40577   0.18549   0.07936   0.89505   -0.40577   0.18549   102.09961
1653   0.07928   0.89471   -0.40703   0.18424   0.07928   0.89471   -0.40703   0.18424   102.20337
1654   0.07927   0.89511   -0.40645   0.18369   0.07927   0.89511   -0.40645   0.18369   102.20337
1655   0.07939   0.89499   -0.40657   0.18400   0.07939   0.89499   -0.40657   0.18400   102.10876
1656   0.07935   0.89529   -0.40571   0.18421   0.07935   0.89529   -0.40571   0.18421   102.13318
1657   0.07925   0.89538   -0.40562   0.18412   0.07925   0.89538   -0.40562   0.18412   102.21558
1658   0.07922   0.89514   -0.40593   0.18464   0.07922   0.89514   -0.40593   0.18464   102.20642
1659   0.07925   0.89514   -0.40587   0.18485   0.07925   0.89514   -0.40587   0.18485   102.09045
1660   0.07930   0.89526   -0.40617   0.18351   0.07930   0.89526   -0.40617   0.18351   102.12402
1661   0.07928   0.89505   -0.40596   0.18476   0.07928   0.89505   -0.40596   0.18476   102.19421
1662   0.07937   0.89517   -0.40577   0.18497   0.07937   0.89517   -0.40577   0.18497   102.14539
1663   0.07934   0.89529   -0.40574   0.18485   0.07934   0.89529   -0.40574   0.18485   102.06299
1664   0.07936   0.89532   -0.40565   0.18397   0.07936   0.89532   -0.40565   0.18397   102.14539
1665   0.07932   0.89520   -0.40666   0.18336   0.07932   0.89520   -0.40666   0.18336   102.19116
1666   0.07939   0.89492   -0.40635   0.18458   0.07939   0.89492   -0.40635   0.18458   102.16675
1667   0.07945   0.89502   -0.40635   0.18470   0.07945   0.89502   -0.40635   0.18470   102.11792
1668   0.07934   0.89535   -0.40559   0.18433   0.07934   0.89535   -0.40559   0.18433   102.16675
1669   0.07934   0.89535   -0.40568   0.18473   0.07934   0.89535   -0.40568   0.18473   102.20337
1670   0.07942   0.89520   -0.40538   0.18567   0.07942   0.89520   -0.40538   0.18567   102.10876
1671   0.07935   0.89557   -0.40480   0.18519   0.07935   0.89557   -0.40480   0.18519   102.16675
1672   0.07922   0.89544   -0.40532   0.18451   0.07922   0.89544   -0.40532   0.18451   102.16980
1673   0.07925   0.89517   -0.40645   0.18369   0.07925   0.89517   -0.40645   0.18369   102.15759
1674   0.07935   0.89532   -0.40538   0.18500   0.07935   0.89532   -0.40538   0.18500   102.08740
1675   0.07931   0.89514   -0.40590   0.18439   0.07931   0.89514   -0.40590   0.18439   102.15759
1676   0.07926   0.89581   -0.40449   0.18442   0.07926   0.89581   -0.40449   0.18442   102.19421
1677   0.07935   0.89535   -0.40529   0.18537   0.07935   0.89535   -0.40529   0.18537   102.08740
1678   0.07934   0.89523   -0.40593   0.18445   0.07934   0.89523   -0.40593   0.18445   102.14539
1679   0.07932   0.89514   -0.40614   0.18467   0.07932   0.89514   -0.40614   0.18467   102.17896
1680   0.07933   0.89486   -0.40681   0.18445   0.07933   0.89486   -0.40681   0.18445   102.16980
1681   0.07945   0.89514   -0.40562   0.18528   0.07945   0.89514   -0.40562   0.18528   102.05078
1682   0.07936   0.89541   -0.40587   0.18390   0.07936   0.89541   -0.40587   0.18390   102.14539
1683   0.07931   0.89471   -0.40709   0.18455   0.07931   0.89471   -0.40709   0.18455   102.22778
1684   0.07931   0.89584   -0.40388   0.18586   0.07931   0.89584   -0.40388   0.18586   102.14539
1685   0.07937   0.89541   -0.40507   0.18531   0.07937   0.89541   -0.40507   0.18531   102.06299
1686   0.07924   0.89520   -0.40645   0.18302   0.07924   0.89520   -0.40645   0.18302   102.18201
1687   0.07917   0.89514   -0.40571   0.18528   0.07917   0.89514   -0.40571   0.18528   102.26440
1688   0.07931   0.89523   -0.40529   0.18531   0.07931   0.89523   -0.40529   0.18531   102.13318
1689   0.07936   0.89535   -0.40565   0.18433   0.07936   0.89535   -0.40565   0.18433   102.08740
1690   0.07930   0.89529   -0.40571   0.18448   0.07930   0.89529   -0.40571   0.18448   102.15759
1691   0.07922   0.89508   -0.40574   0.18528   0.07922   0.89508   -0.40574   0.18528   102.26440
1692   0.07935   0.89499   -0.40620   0.18516   0.07935   0.89499   -0.40620   0.18516   102.09961
1693   0.07938   0.89517   -0.40568   0.18491   0.07938   0.89517   -0.40568   0.18491   102.06299
1694   0.07931   0.89529   -0.40526   0.18552   0.07931   0.89529   -0.40526   0.18552   102.19116
1695   0.07929   0.89532   -0.40526   0.18525   0.07929   0.89532   -0.40526   0.18525   102.21558
1696   0.07938   0.89511   -0.40571   0.18534   0.07938   0.89511   -0.40571   0.18534   102.08740
1697   0.07938   0.89547   -0.40532   0.18439   0.07938   0.89547   -0.40532   0.18439   102.13318
1698   0.07927   0.89511   -0.40602   0.18500   0.07927   0.89511   -0.40602   0.18500   102.20337
1699   0.07929   0.89505   -0.40599   0.18509   0.07929   0.89505   -0.40599   0.18509   102.14539
1700   0.07927   0.89532   -0.40544   0.18528   0.07927   0.89532   -0.40544   0.18528   102.09045
1701   0.07929   0.89532   -0.40568   0.18482   0.07929   0.89532   -0.40568   0.18482   102.14539
1702   0.07922   0.89532   -0.40535   0.18513   0.07922   0.89532   -0.40535   0.18513   102.21863
1703   0.07930   0.89517   -0.40587   0.18503   0.07930   0.89517   -0.40587   0.18503   102.14539
1704   0.07936   0.89514   -0.40617   0.18406   0.07936   0.89514   -0.40617   0.18406   102.14539
1705   0.07930   0.89508   -0.40648   0.18427   0.07930   0.89508   -0.40648   0.18427   102.16980
1706   0.07931   0.89505   -0.40629   0.18476   0.07931   0.89505   -0.40629   0.18476   102.17896
1707   0.07939   0.89517   -0.40596   0.18479   0.07939   0.89517   -0.40596   0.18479   102.09656
1708   0.07936   0.89547   -0.40529   0.18488   0.07936   0.89547   -0.40529   0.18488   102.13318
1709   0.07933   0.89544   -0.40550   0.18397   0.07933   0.89544   -0.40550   0.18397   102.19116
1710   0.07933   0.89462   -0.40721   0.18503   0.07933   0.89462   -0.40721   0.18503   102.16675
1711   0.07940   0.89502   -0.40580   0.18546   0.07940   0.89502   -0.40580   0.18546   102.07520
1712   0.07931   0.89514   -0.40635   0.18415   0.07931   0.89514   -0.40635   0.18415   102.19116
1713   0.07922   0.89563   -0.40522   0.18448   0.07922   0.89563   -0.40522   0.18448   102.19421
1714   0.07924   0.89541   -0.40498   0.18564   0.07924   0.89541   -0.40498   0.18564   102.11182
1715   0.07934   0.89538   -0.40513   0.18531   0.07934   0.89538   -0.40513   0.18531   102.08740
1716   0.07926   0.89517   -0.40638   0.18348   0.07926   0.89517   -0.40638   0.18348   102.21558
1717   0.07924   0.89505   -0.40632   0.18482   0.07924   0.89505   -0.40632   0.18482   102.19421
1718   0.07934   0.89514   -0.40571   0.18540   0.07934   0.89514   -0.40571   0.18540   102.07520
1719   0.07935   0.89584   -0.40455   0.18482   0.07935   0.89584   -0.40455   0.18482   102.12097
1720   0.07928   0.89544   -0.40547   0.18448   0.07928   0.89544   -0.40547   0.18448   102.23999
1721   0.07930   0.89544   -0.40556   0.18436   0.07930   0.89544   -0.40556   0.18436   102.15759
1722   0.07942   0.89532   -0.40513   0.18592   0.07942   0.89532   -0.40513   0.18592   102.03857
1723   0.07937   0.89529   -0.40602   0.18445   0.07937   0.89529   -0.40602   0.18445   102.12097
1724   0.07929   0.89572   -0.40516   0.18381   0.07929   0.89572   -0.40516   0.18381   102.23999
1725   0.07932   0.89538   -0.40529   0.18455   0.07932   0.89538   -0.40529   0.18455   102.14539
1726   0.07918   0.89560   -0.40480   0.18516   0.07918   0.89560   -0.40480   0.18516   102.04468
1727   0.07915   0.89520   -0.40623   0.18418   0.07915   0.89520   -0.40623   0.18418   102.12708
1728   0.07922   0.89523   -0.40550   0.18506   0.07922   0.89523   -0.40550   0.18506   102.19421
1729   0.07935   0.89572   -0.40428   0.18598   0.07935   0.89572   -0.40428   0.18598   102.12097
1730   0.07930   0.89511   -0.40544   0.18580   0.07930   0.89511   -0.40544   0.18580   102.08740
1731   0.07925   0.89529   -0.40571   0.18506   0.07925   0.89529   -0.40571   0.18506   102.16980
1732   0.07929   0.89496   -0.40620   0.18506   0.07929   0.89496   -0.40620   0.18506   102.19116
1733   0.07940   0.89575   -0.40449   0.18500   0.07940   0.89575   -0.40449   0.18500   102.09656
1734   0.07944   0.89526   -0.40617   0.18400   0.07944   0.89526   -0.40617   0.18400   102.10876
1735   0.07932   0.89520   -0.40629   0.18357   0.07932   0.89520   -0.40629   0.18357   102.19116
1736   0.07930   0.89541   -0.40565   0.18448   0.07930   0.89541   -0.40565   0.18448   102.23694
1737   0.07938   0.89550   -0.40526   0.18439   0.07938   0.89550   -0.40526   0.18439   102.14233
1738   0.07940   0.89557   -0.40480   0.18513   0.07940   0.89557   -0.40480   0.18513   102.12097
1739   0.07930   0.89514   -0.40651   0.18394   0.07930   0.89514   -0.40651   0.18394   102.21558
1740   0.07931   0.89462   -0.40699   0.18482   0.07931   0.89462   -0.40699   0.18482   102.13318
1741   0.07925   0.89511   -0.40632   0.18445   0.07925   0.89511   -0.40632   0.18445   102.12402
1742   0.07922   0.89566   -0.40489   0.18433   0.07922   0.89566   -0.40489   0.18433   102.19421
1743   0.07923   0.89529   -0.40571   0.18476   0.07923   0.89529   -0.40571   0.18476   102.19421
1744   0.07930   0.89496   -0.40617   0.18494   0.07930   0.89496   -0.40617   0.18494   102.08740
1745   0.07938   0.89538   -0.40553   0.18439   0.07938   0.89538   -0.40553   0.18439   102.14233
1746   0.07937   0.89502   -0.40638   0.18451   0.07937   0.89502   -0.40638   0.18451   102.19116
1747   0.07926   0.89492   -0.40669   0.18427   0.07926   0.89492   -0.40669   0.18427   102.15759
1748   0.07926   0.89569   -0.40474   0.18500   0.07926   0.89569   -0.40474   0.18500   102.06604
1749   0.07933   0.89538   -0.40556   0.18467   0.07933   0.89538   -0.40556   0.18467   102.15759
1750   0.07939   0.89523   -0.40617   0.18415   0.07939   0.89523   -0.40617   0.18415   102.16675
1751   0.07945   0.89520   -0.40620   0.18421   0.07945   0.89520   -0.40620   0.18421   102.10876
1752   0.07938   0.89523   -0.40541   0.18543   0.07938   0.89523   -0.40541   0.18543   102.07520
1753   0.07923   0.89508   -0.40617   0.18458   0.07923   0.89508   -0.40617   0.18458   102.18201
1754   0.07923   0.89520   -0.40629   0.18421   0.07923   0.89520   -0.40629   0.18421   102.23999
1755   0.07928   0.89474   -0.40690   0.18467   0.07928   0.89474   -0.40690   0.18467   102.11182
1756   0.07933   0.89489   -0.40657   0.18455   0.07933   0.89489   -0.40657   0.18455   102.07520
1757   0.07922   0.89554   -0.40553   0.18354   0.07922   0.89554   -0.40553   0.18354   102.20642
1758   0.07923   0.89560   -0.40544   0.18415   0.07923   0.89560   -0.40544   0.18415   102.16980
1759   0.07935   0.89544   -0.40519   0.18525   0.07935   0.89544   -0.40519   0.18525   102.07520
1760   0.07936   0.89520   -0.40577   0.18522   0.07936   0.89520   -0.40577   0.18522   102.09961
1761   0.07934   0.89517   -0.40608   0.18415   0.07934   0.89517   -0.40608   0.18415   102.21252
1762   0.07943   0.89505   -0.40617   0.18467   0.07943   0.89505   -0.40617   0.18467   102.15454
1763   0.07926   0.89554   -0.40434   0.18628   0.07926   0.89554   -0.40434   0.18628   102.09045
1764   0.07917   0.89520   -0.40590   0.18482   0.07917   0.89520   -0.40590   0.18482   102.10266
1765   0.07933   0.89563   -0.40559   0.18342   0.07933   0.89563   -0.40559   0.18342   102.22473
1766   0.07936   0.89502   -0.40587   0.18546   0.07936   0.89502   -0.40587   0.18546   102.17896
1767   0.07924   0.89492   -0.40657   0.18439   0.07924   0.89492   -0.40657   0.18439   102.13623
1768   0.07915   0.89526   -0.40556   0.18522   0.07915   0.89526   -0.40556   0.18522   102.16064
1769   0.07914   0.89560   -0.40468   0.18525   0.07914   0.89560   -0.40468   0.18525   102.18506
1770   0.07926   0.89523   -0.40547   0.18552   0.07926   0.89523   -0.40547   0.18552   102.12402
1771   0.07920   0.89554   -0.40529   0.18436   0.07920   0.89554   -0.40529   0.18436   102.13623
1772   0.07922   0.89535   -0.40559   0.18445   0.07922   0.89535   -0.40559   0.18445   102.17285
1773   0.07923   0.89511   -0.40635   0.18384   0.07923   0.89511   -0.40635   0.18384   102.16980
1774   0.07932   0.89483   -0.40675   0.18445   0.07932   0.89483   -0.40675   0.18445   102.12097
1775   0.07930   0.89502   -0.40657   0.18394   0.07930   0.89502   -0.40657   0.18394   102.13318
1776   0.07927   0.89541   -0.40574   0.18406   0.07927   0.89541   -0.40574   0.18406   102.18201
1777   0.07928   0.89529   -0.40577   0.18445   0.07928   0.89529   -0.40577   0.18445   102.15759
1778   0.07933   0.89499   -0.40654   0.18436   0.07933   0.89499   -0.40654   0.18436   102.12097
1779   0.07929   0.89557   -0.40504   0.18476   0.07929   0.89557   -0.40504   0.18476   102.18201
1780   0.07925   0.89526   -0.40526   0.18546   0.07925   0.89526   -0.40526   0.18546   102.18201
1781   0.07930   0.89532   -0.40559   0.18461   0.07930   0.89532   -0.40559   0.18461   102.11182
1782   0.07930   0.89544   -0.40584   0.18363   0.07930   0.89544   -0.40584   0.18363   102.08740
1783   0.07918   0.89538   -0.40596   0.18326   0.07918   0.89538   -0.40596   0.18326   102.18506
1784   0.07922   0.89502   -0.40635   0.18436   0.07922   0.89502   -0.40635   0.18436   102.23999
1785   0.07929   0.89560   -0.40519   0.18403   0.07929   0.89560   -0.40519   0.18403   102.06604
1786   0.07929   0.89541   -0.40510   0.18534   0.07929   0.89541   -0.40510   0.18534   102.13623
1787   0.07918   0.89554   -0.40541   0.18394   0.07918   0.89554   -0.40541   0.18394   102.20642
1788   0.07926   0.89526   -0.40632   0.18366   0.07926   0.89526   -0.40632   0.18366   102.16980
1789   0.07936   0.89511   -0.40556   0.18571   0.07936   0.89511   -0.40556   0.18571   102.05078
1790   0.07931   0.89535   -0.40544   0.18513   0.07931   0.89535   -0.40544   0.18513   102.15759
1791   0.07927   0.89572   -0.40471   0.18488   0.07927   0.89572   -0.40471   0.18488   102.21558
1792   0.07928   0.89526   -0.40623   0.18397   0.07928   0.89526   -0.40623   0.18397   102.20337
1793   0.07937   0.89550   -0.40495   0.18513   0.07937   0.89550   -0.40495   0.18513   102.08740
1794   0.07930   0.89535   -0.40538   0.18519   0.07930   0.89535   -0.40538   0.18519   102.19116
1795   0.07923   0.89529   -0.40556   0.18485   0.07923   0.89529   -0.40556   0.18485   102.22778
1796   0.07923   0.89526   -0.40553   0.18503   0.07923   0.89526   -0.40553   0.18503   102.13623
1797   0.07929   0.89557   -0.40480   0.18516   0.07929   0.89557   -0.40480   0.18516   102.08740
1798   0.07927   0.89578   -0.40529   0.18326   0.07927   0.89578   -0.40529   0.18326   102.12402
1799   0.07918   0.89587   -0.40419   0.18546   0.07918   0.89587   -0.40419   0.18546   102.16064
1800   0.07932   0.89544   -0.40489   0.18555   0.07932   0.89544   -0.40489   0.18555   102.09961
1801   0.07930   0.89532   -0.40541   0.18479   0.07930   0.89532   -0.40541   0.18479   102.08740
1802   0.07930   0.89529   -0.40587   0.18464   0.07930   0.89529   -0.40587   0.18464   102.15759
1803   0.07930   0.89566   -0.40492   0.18482   0.07930   0.89566   -0.40492   0.18482   102.18201
1804   0.07936   0.89557   -0.40495   0.18497   0.07936   0.89557   -0.40495   0.18497   102.05078
1805   0.07936   0.89584   -0.40529   0.18314   0.07936   0.89584   -0.40529   0.18314   102.12097
1806   0.07931   0.89526   -0.40590   0.18424   0.07931   0.89526   -0.40590   0.18424   102.17896
1807   0.07933   0.89538   -0.40562   0.18439   0.07933   0.89538   -0.40562   0.18439   102.14539
1808   0.07935   0.89544   -0.40556   0.18473   0.07935   0.89544   -0.40556   0.18473   102.07520
1809   0.07927   0.89596   -0.40400   0.18558   0.07927   0.89596   -0.40400   0.18558   102.12402
1810   0.07920   0.89566   -0.40474   0.18522   0.07920   0.89566   -0.40474   0.18522   102.16064
1811   0.07928   0.89544   -0.40477   0.18558   0.07928   0.89544   -0.40477   0.18558   102.11182
1812   0.07925   0.89550   -0.40501   0.18482   0.07925   0.89550   -0.40501   0.18482   102.18201
1813   0.07921   0.89541   -0.40529   0.18445   0.07921   0.89541   -0.40529   0.18445   102.23083
1814   0.07932   0.89535   -0.40510   0.18567   0.07932   0.89535   -0.40510   0.18567   102.11182
1815   0.07935   0.89547   -0.40483   0.18546   0.07935   0.89547   -0.40483   0.18546   102.07520
1816   0.07930   0.89541   -0.40519   0.18516   0.07930   0.89541   -0.40519   0.18516   102.15759
1817   0.07929   0.89566   -0.40495   0.18421   0.07929   0.89566   -0.40495   0.18421   102.21558
1818   0.07937   0.89554   -0.40455   0.18625   0.07937   0.89554   -0.40455   0.18625   102.06299
1819   0.07938   0.89608   -0.40364   0.18522   0.07938   0.89608   -0.40364   0.18522   102.05078
1820   0.07931   0.89581   -0.40437   0.18461   0.07931   0.89581   -0.40437   0.18461   102.21558
1821   0.07929   0.89590   -0.40431   0.18497   0.07929   0.89590   -0.40431   0.18497   102.19116
1822   0.07939   0.89554   -0.40452   0.18613   0.07939   0.89554   -0.40452   0.18613   102.06299
1823   0.07933   0.89563   -0.40455   0.18543   0.07933   0.89563   -0.40455   0.18543   102.06299
1824   0.07922   0.89532   -0.40574   0.18436   0.07922   0.89532   -0.40574   0.18436   102.18201
1825   0.07922   0.89569   -0.40461   0.18473   0.07922   0.89569   -0.40461   0.18473   102.21863
1826   0.07940   0.89550   -0.40529   0.18433   0.07940   0.89550   -0.40529   0.18433   102.09656
1827   0.07945   0.89547   -0.40556   0.18424   0.07945   0.89547   -0.40556   0.18424   102.13013
1828   0.07929   0.89538   -0.40590   0.18415   0.07929   0.89538   -0.40590   0.18415   102.21558
1829   0.07928   0.89569   -0.40498   0.18409   0.07928   0.89569   -0.40498   0.18409   102.14539
1830   0.07941   0.89563   -0.40461   0.18561   0.07941   0.89563   -0.40461   0.18561   102.06299
1831   0.07937   0.89532   -0.40513   0.18546   0.07937   0.89532   -0.40513   0.18546   102.09656
1832   0.07930   0.89554   -0.40544   0.18433   0.07930   0.89554   -0.40544   0.18433   102.18201
1833   0.07931   0.89584   -0.40388   0.18601   0.07931   0.89584   -0.40388   0.18601   102.14539
1834   0.07936   0.89566   -0.40480   0.18525   0.07936   0.89566   -0.40480   0.18525   102.05078
1835   0.07932   0.89578   -0.40452   0.18464   0.07932   0.89578   -0.40452   0.18464   102.13318
1836   0.07924   0.89535   -0.40474   0.18656   0.07924   0.89535   -0.40474   0.18656   102.19421
1837   0.07926   0.89575   -0.40428   0.18522   0.07926   0.89575   -0.40428   0.18522   102.12402
1838   0.07923   0.89572   -0.40440   0.18555   0.07923   0.89572   -0.40440   0.18555   102.06604
1839   0.07925   0.89523   -0.40550   0.18531   0.07925   0.89523   -0.40550   0.18531   102.14844
1840   0.07921   0.89538   -0.40504   0.18537   0.07921   0.89538   -0.40504   0.18537   102.14844
1841   0.07930   0.89575   -0.40422   0.18552   0.07930   0.89575   -0.40422   0.18552   102.08740
1842   0.07927   0.89578   -0.40437   0.18513   0.07927   0.89578   -0.40437   0.18513   102.13623
1843   0.07928   0.89541   -0.40559   0.18387   0.07928   0.89541   -0.40559   0.18387   102.20337
1844   0.07931   0.89572   -0.40461   0.18522   0.07931   0.89572   -0.40461   0.18522   102.08740
1845   0.07915   0.89538   -0.40550   0.18445   0.07915   0.89538   -0.40550   0.18445   102.12708
1846   0.07913   0.89581   -0.40526   0.18336   0.07913   0.89581   -0.40526   0.18336   102.15149
1847   0.07929   0.89557   -0.40519   0.18476   0.07929   0.89557   -0.40519   0.18476   102.18201
1848   0.07942   0.89569   -0.40431   0.18577   0.07942   0.89569   -0.40431   0.18577   102.09656
1849   0.07923   0.89569   -0.40541   0.18381   0.07923   0.89569   -0.40541   0.18381   102.13623
1850   0.07912   0.89605   -0.40403   0.18500   0.07912   0.89605   -0.40403   0.18500   102.19727
1851   0.07916   0.89566   -0.40391   0.18653   0.07916   0.89566   -0.40391   0.18653   102.12708
1852   0.07927   0.89502   -0.40559   0.18604   0.07927   0.89502   -0.40559   0.18604   102.06604
1853   0.07925   0.89557   -0.40483   0.18491   0.07925   0.89557   -0.40483   0.18491   102.14844
1854   0.07916   0.89569   -0.40437   0.18528   0.07916   0.89569   -0.40437   0.18528   102.20642
1855   0.07923   0.89569   -0.40434   0.18577   0.07923   0.89569   -0.40434   0.18577   102.13623
1856   0.07936   0.89578   -0.40437   0.18494   0.07936   0.89578   -0.40437   0.18494   102.05078
1857   0.07933   0.89557   -0.40489   0.18494   0.07933   0.89557   -0.40489   0.18494   102.14539
1858   0.07925   0.89572   -0.40437   0.18543   0.07925   0.89572   -0.40437   0.18543   102.20642
1859   0.07935   0.89523   -0.40522   0.18589   0.07935   0.89523   -0.40522   0.18589   102.08740
1860   0.07939   0.89508   -0.40593   0.18497   0.07939   0.89508   -0.40593   0.18497   102.07520
1861   0.07935   0.89514   -0.40617   0.18406   0.07935   0.89514   -0.40617   0.18406   102.15759
1862   0.07939   0.89578   -0.40434   0.18513   0.07939   0.89578   -0.40434   0.18513   102.17896
1863   0.07939   0.89575   -0.40425   0.18564   0.07939   0.89575   -0.40425   0.18564   102.10876
1864   0.07937   0.89587   -0.40400   0.18531   0.07937   0.89587   -0.40400   0.18531   102.10876
1865   0.07925   0.89550   -0.40477   0.18586   0.07925   0.89550   -0.40477   0.18586   102.16980
1866   0.07931   0.89529   -0.40519   0.18561   0.07931   0.89529   -0.40519   0.18561   102.12402
1867   0.07937   0.89575   -0.40449   0.18528   0.07937   0.89575   -0.40449   0.18528   102.08740
1868   0.07936   0.89575   -0.40507   0.18372   0.07936   0.89575   -0.40507   0.18372   102.10876
1869   0.07929   0.89541   -0.40501   0.18534   0.07929   0.89541   -0.40501   0.18534   102.19116
1870   0.07933   0.89520   -0.40489   0.18650   0.07933   0.89520   -0.40489   0.18650   102.14539
1871   0.07937   0.89633   -0.40297   0.18549   0.07937   0.89633   -0.40297   0.18549   102.12097
1872   0.07934   0.89526   -0.40565   0.18485   0.07934   0.89526   -0.40565   0.18485   102.16675
1873   0.07933   0.89563   -0.40480   0.18473   0.07933   0.89563   -0.40480   0.18473   102.15759
1874   0.07936   0.89590   -0.40400   0.18500   0.07936   0.89590   -0.40400   0.18500   102.12097
1875   0.07938   0.89526   -0.40550   0.18482   0.07938   0.89526   -0.40550   0.18482   102.15454
1876   0.07933   0.89563   -0.40492   0.18513   0.07933   0.89563   -0.40492   0.18513   102.19116
1877   0.07933   0.89544   -0.40516   0.18497   0.07933   0.89544   -0.40516   0.18497   102.14539
1878   0.07932   0.89554   -0.40495   0.18549   0.07932   0.89554   -0.40495   0.18549   102.09961
1879   0.07920   0.89538   -0.40556   0.18433   0.07920   0.89538   -0.40556   0.18433   102.17285
1880   0.07925   0.89575   -0.40431   0.18543   0.07925   0.89575   -0.40431   0.18543   102.21558
1881   0.07933   0.89514   -0.40556   0.18555   0.07933   0.89514   -0.40556   0.18555   102.08740
1882   0.07932   0.89566   -0.40449   0.18540   0.07932   0.89566   -0.40449   0.18540   102.08740
1883   0.07926   0.89554   -0.40510   0.18485   0.07926   0.89554   -0.40510   0.18485   102.19421
1884   0.07928   0.89511   -0.40568   0.18528   0.07928   0.89511   -0.40568   0.18528   102.20337
1885   0.07939   0.89554   -0.40492   0.18531   0.07939   0.89554   -0.40492   0.18531   102.03857
1886   0.07938   0.89547   -0.40532   0.18467   0.07938   0.89547   -0.40532   0.18467   102.08740
1887   0.07929   0.89544   -0.40492   0.18528   0.07929   0.89544   -0.40492   0.18528   102.23999
1888   0.07934   0.89560   -0.40464   0.18571   0.07934   0.89560   -0.40464   0.18571   102.12097
1889   0.07944   0.89572   -0.40416   0.18571   0.07944   0.89572   -0.40416   0.18571   102.06299
1890   0.07934   0.89541   -0.40468   0.18613   0.07934   0.89541   -0.40468   0.18613   102.12097
1891   0.07927   0.89544   -0.40510   0.18525   0.07927   0.89544   -0.40510   0.18525   102.23999
1892   0.07926   0.89578   -0.40400   0.18625   0.07926   0.89578   -0.40400   0.18625   102.12402
1893   0.07930   0.89529   -0.40492   0.18574   0.07930   0.89529   -0.40492   0.18574   102.08740
1894   0.07932   0.89550   -0.40480   0.18534   0.07932   0.89550   -0.40480   0.18534   102.14539
1895   0.07922   0.89544   -0.40483   0.18574   0.07922   0.89544   -0.40483   0.18574   102.23999
1896   0.07933   0.89602   -0.40443   0.18384   0.07933   0.89602   -0.40443   0.18384   102.12097
1897   0.07937   0.89590   -0.40379   0.18552   0.07937   0.89590   -0.40379   0.18552   102.10876
1898   0.07933   0.89566   -0.40458   0.18540   0.07933   0.89566   -0.40458   0.18540   102.14539
1899   0.07933   0.89560   -0.40483   0.18509   0.07933   0.89560   -0.40483   0.18509   102.15759
1900   0.07937   0.89581   -0.40477   0.18455   0.07937   0.89581   -0.40477   0.18455   102.08740
1901   0.07940   0.89541   -0.40550   0.18458   0.07940   0.89541   -0.40550   0.18458   102.09656
1902   0.07937   0.89566   -0.40522   0.18409   0.07937   0.89566   -0.40522   0.18409   102.15454
1903   0.07937   0.89596   -0.40419   0.18506   0.07937   0.89596   -0.40419   0.18506   102.14539
1904   0.07939   0.89547   -0.40468   0.18574   0.07939   0.89547   -0.40468   0.18574   102.14233
1905   0.07934   0.89578   -0.40443   0.18488   0.07934   0.89578   -0.40443   0.18488   102.14539
1906   0.07923   0.89532   -0.40556   0.18470   0.07923   0.89532   -0.40556   0.18470   102.18201
1907   0.07924   0.89566   -0.40403   0.18638   0.07924   0.89566   -0.40403   0.18638   102.10266
1908   0.07931   0.89590   -0.40403   0.18519   0.07931   0.89590   -0.40403   0.18519   102.11182
1909   0.07927   0.89575   -0.40498   0.18387   0.07927   0.89575   -0.40498   0.18387   102.14539
1910   0.07929   0.89560   -0.40486   0.18445   0.07929   0.89560   -0.40486   0.18445   102.19116
1911   0.07936   0.89502   -0.40577   0.18607   0.07936   0.89502   -0.40577   0.18607   102.09961
1912   0.07934   0.89489   -0.40608   0.18555   0.07934   0.89489   -0.40608   0.18555   102.13318
1913   0.07932   0.89569   -0.40474   0.18473   0.07932   0.89569   -0.40474   0.18473   102.17896
1914   0.07937   0.89584   -0.40419   0.18513   0.07937   0.89584   -0.40419   0.18513   102.13318
1915   0.07941   0.89520   -0.40541   0.18543   0.07941   0.89520   -0.40541   0.18543   102.08435
1916   0.07932   0.89523   -0.40587   0.18433   0.07932   0.89523   -0.40587   0.18433   102.20337
1917   0.07930   0.89511   -0.40599   0.18509   0.07930   0.89511   -0.40599   0.18509   102.20337
1918   0.07939   0.89520   -0.40565   0.18497   0.07939   0.89520   -0.40565   0.18497   102.07520
1919   0.07934   0.89523   -0.40580   0.18473   0.07934   0.89523   -0.40580   0.18473   102.09961
1920   0.07920   0.89492   -0.40675   0.18381   0.07920   0.89492   -0.40675   0.18381   102.18201
1921   0.07922   0.89541   -0.40541   0.18528   0.07922   0.89541   -0.40541   0.18528   102.20642
1922   0.07932   0.89532   -0.40538   0.18513   0.07932   0.89532   -0.40538   0.18513   102.08740
1923   0.07933   0.89499   -0.40593   0.18528   0.07933   0.89499   -0.40593   0.18528   102.08740
1924   0.07928   0.89499   -0.40675   0.18384   0.07928   0.89499   -0.40675   0.18384   102.19421
1925   0.07927   0.89517   -0.40544   0.18555   0.07927   0.89517   -0.40544   0.18555   102.20337
1926   0.07919   0.89544   -0.40498   0.18537   0.07919   0.89544   -0.40498   0.18537   102.04468
1927   0.07917   0.89566   -0.40535   0.18384   0.07917   0.89566   -0.40535   0.18384   102.12708
1928   0.07935   0.89563   -0.40510   0.18458   0.07935   0.89563   -0.40510   0.18458   102.14539
1929   0.07940   0.89511   -0.40577   0.18577   0.07940   0.89511   -0.40577   0.18577   102.12097
1930   0.07941   0.89505   -0.40593   0.18497   0.07941   0.89505   -0.40593   0.18497   102.09656
1931   0.07931   0.89566   -0.40556   0.18311   0.07931   0.89566   -0.40556   0.18311   102.15759
1932   0.07926   0.89581   -0.40443   0.18500   0.07926   0.89581   -0.40443   0.18500   102.20337
1933   0.07929   0.89563   -0.40464   0.18525   0.07929   0.89563   -0.40464   0.18525   102.14539
1934   0.07933   0.89508   -0.40648   0.18400   0.07933   0.89508   -0.40648   0.18400   102.13318
1935   0.07932   0.89511   -0.40605   0.18467   0.07932   0.89511   -0.40605   0.18467   102.16980
1936   0.07925   0.89560   -0.40507   0.18421   0.07925   0.89560   -0.40507   0.18421   102.19421
1937   0.07933   0.89557   -0.40547   0.18394   0.07933   0.89557   -0.40547   0.18394   102.11182
1938   0.07930   0.89499   -0.40635   0.18476   0.07930   0.89499   -0.40635   0.18476   102.18201
1939   0.07931   0.89486   -0.40721   0.18348   0.07931   0.89486   -0.40721   0.18348   102.16980
1940   0.07934   0.89502   -0.40584   0.18549   0.07934   0.89502   -0.40584   0.18549   102.10876
1941   0.07936   0.89468   -0.40721   0.18439   0.07936   0.89468   -0.40721   0.18439   102.12097
1942   0.07933   0.89544   -0.40501   0.18519   0.07933   0.89544   -0.40501   0.18519   102.14539
1943   0.07932   0.89520   -0.40574   0.18491   0.07932   0.89520   -0.40574   0.18491   102.20337
1944   0.07941   0.89505   -0.40574   0.18561   0.07941   0.89505   -0.40574   0.18561   102.07520
1945   0.07944   0.89468   -0.40730   0.18424   0.07944   0.89468   -0.40730   0.18424   102.10876
1946   0.07936   0.89508   -0.40632   0.18442   0.07936   0.89508   -0.40632   0.18442   102.20337
1947   0.07921   0.89499   -0.40599   0.18534   0.07921   0.89499   -0.40599   0.18534   102.17285
1948   0.07919   0.89514   -0.40559   0.18549   0.07919   0.89514   -0.40559   0.18549   102.06909
1949   0.07930   0.89508   -0.40574   0.18543   0.07930   0.89508   -0.40574   0.18543   102.16980
1950   0.07933   0.89477   -0.40739   0.18329   0.07933   0.89477   -0.40739   0.18329   102.22473
1951   0.07937   0.89486   -0.40638   0.18564   0.07937   0.89486   -0.40638   0.18564   102.15454
1952   0.07938   0.89517   -0.40587   0.18528   0.07938   0.89517   -0.40587   0.18528   102.02942
1953   0.07929   0.89538   -0.40532   0.18513   0.07929   0.89538   -0.40532   0.18513   102.13623
1954   0.07930   0.89517   -0.40593   0.18464   0.07930   0.89517   -0.40593   0.18464   102.21558
1955   0.07940   0.89471   -0.40675   0.18476   0.07940   0.89471   -0.40675   0.18476   102.13318
1956   0.07944   0.89465   -0.40724   0.18421   0.07944   0.89465   -0.40724   0.18421   102.05078
1957   0.07930   0.89468   -0.40779   0.18363   0.07930   0.89468   -0.40779   0.18363   102.15759
1958   0.07929   0.89453   -0.40736   0.18442   0.07929   0.89453   -0.40736   0.18442   102.22778
1959   0.07938   0.89474   -0.40703   0.18436   0.07938   0.89474   -0.40703   0.18436   102.06299
1960   0.07934   0.89471   -0.40651   0.18567   0.07934   0.89471   -0.40651   0.18567   102.09961
1961   0.07925   0.89492   -0.40663   0.18455   0.07925   0.89492   -0.40663   0.18455   102.18201
1962   0.07935   0.89459   -0.40706   0.18476   0.07935   0.89459   -0.40706   0.18476   102.19116
1963   0.07927   0.89471   -0.40693   0.18473   0.07927   0.89471   -0.40693   0.18473   102.13623
1964   0.07910   0.89456   -0.40770   0.18384   0.07910   0.89456   -0.40770   0.18384   102.11792
1965   0.07922   0.89456   -0.40724   0.18439   0.07922   0.89456   -0.40724   0.18439   102.21863
1966   0.07933   0.89477   -0.40638   0.18592   0.07933   0.89477   -0.40638   0.18592   102.13318
1967   0.07930   0.89441   -0.40794   0.18403   0.07930   0.89441   -0.40794   0.18403   102.14539
1968   0.07925   0.89517   -0.40593   0.18509   0.07925   0.89517   -0.40593   0.18509   102.13623
1969   0.07927   0.89480   -0.40660   0.18473   0.07927   0.89480   -0.40660   0.18473   102.18201
1970   0.07935   0.89477   -0.40675   0.18451   0.07935   0.89477   -0.40675   0.18451   102.13318
1971   0.07931   0.89483   -0.40657   0.18479   0.07931   0.89483   -0.40657   0.18479   102.15759
1972   0.07928   0.89477   -0.40748   0.18342   0.07928   0.89477   -0.40748   0.18342   102.19421
1973   0.07929   0.89489   -0.40654   0.18436   0.07929   0.89489   -0.40654   0.18436   102.15759
1974   0.07933   0.89474   -0.40733   0.18409   0.07933   0.89474   -0.40733   0.18409   102.12097
1975   0.07921   0.89468   -0.40739   0.18363   0.07921   0.89468   -0.40739   0.18363   102.14844
1976   0.07920   0.89496   -0.40632   0.18497   0.07920   0.89496   -0.40632   0.18497   102.18201
1977   0.07926   0.89496   -0.40672   0.18387   0.07926   0.89496   -0.40672   0.18387   102.12402
1978   0.07929   0.89468   -0.40678   0.18473   0.07929   0.89468   -0.40678   0.18473   102.15759
1979   0.07927   0.89444   -0.40800   0.18384   0.07927   0.89444   -0.40800   0.18384   102.19421
1980   0.07924   0.89474   -0.40703   0.18424   0.07924   0.89474   -0.40703   0.18424   102.20642
1981   0.07933   0.89462   -0.40693   0.18500   0.07933   0.89462   -0.40693   0.18500   102.13318
1982   0.07935   0.89496   -0.40681   0.18366   0.07935   0.89496   -0.40681   0.18366   102.12097
1983   0.07928   0.89477   -0.40727   0.18378   0.07928   0.89477   -0.40727   0.18378   102.23999
1984   0.07927   0.89514   -0.40602   0.18485   0.07927   0.89514   -0.40602   0.18485   102.20337
1985   0.07937   0.89483   -0.40599   0.18610   0.07937   0.89483   -0.40599   0.18610   102.07520
1986   0.07930   0.89496   -0.40626   0.18473   0.07930   0.89496   -0.40626   0.18473   102.15759
1987   0.07924   0.89532   -0.40623   0.18320   0.07924   0.89532   -0.40623   0.18320   102.20642
1988   0.07924   0.89514   -0.40568   0.18525   0.07924   0.89514   -0.40568   0.18525   102.20642
1989   0.07928   0.89489   -0.40684   0.18412   0.07928   0.89489   -0.40684   0.18412   102.06604
1990   0.07926   0.89468   -0.40693   0.18455   0.07926   0.89468   -0.40693   0.18455   102.16980
1991   0.07921   0.89489   -0.40690   0.18400   0.07921   0.89489   -0.40690   0.18400   102.21863
1992   0.07927   0.89462   -0.40681   0.18580   0.07927   0.89462   -0.40681   0.18580   102.14539
1993   0.07933   0.89514   -0.40562   0.18577   0.07933   0.89514   -0.40562   0.18577   102.01721
1994   0.07929   0.89492   -0.40666   0.18394   0.07929   0.89492   -0.40666   0.18394   102.15759
1995   0.07924   0.89465   -0.40693   0.18482   0.07924   0.89465   -0.40693   0.18482   102.19421
1996   0.07931   0.89486   -0.40617   0.18571   0.07931   0.89486   -0.40617   0.18571   102.12402
1997   0.07935   0.89453   -0.40742   0.18506   0.07935   0.89453   -0.40742   0.18506   102.06299
1998   0.07930   0.89492   -0.40678   0.18433   0.07930   0.89492   -0.40678   0.18433   102.18201
1999   0.07928   0.89520   -0.40580   0.18476   0.07928   0.89520   -0.40580   0.18476   102.19421
2000   0.07934   0.89508   -0.40596   0.18525   0.07934   0.89508   -0.40596   0.18525   102.08740
