Sampling rate: 10000.000 samples/sec
Screen size: 2000 samples
DOP average: 1 SOPsamples
Start time: 16:26:18 5/18/2021
Interval: 0.000100000 sec
(Waveform type: 1,3,4,5)
Index      S0(mW)      S1      S2      S3      S0(mW)      S1      S2      S3      DOP
1   0.07929   0.89532   -0.40693   0.18168   0.07929   0.89532   -0.40693   0.18168   102.09961
2   0.07917   0.89532   -0.40641   0.18296   0.07917   0.89532   -0.40641   0.18296   102.14844
3   0.07925   0.89480   -0.40690   0.18421   0.07925   0.89480   -0.40690   0.18421   102.09961
4   0.07919   0.89502   -0.40678   0.18348   0.07919   0.89502   -0.40678   0.18348   102.10266
5   0.07925   0.89474   -0.40809   0.18186   0.07925   0.89474   -0.40809   0.18186   102.12402
6   0.07919   0.89477   -0.40757   0.18265   0.07919   0.89477   -0.40757   0.18265   102.13623
7   0.07923   0.89459   -0.40785   0.18351   0.07923   0.89459   -0.40785   0.18351   102.11182
8   0.07922   0.89474   -0.40788   0.18278   0.07922   0.89474   -0.40788   0.18278   102.12402
9   0.07923   0.89468   -0.40809   0.18271   0.07923   0.89468   -0.40809   0.18271   102.14844
10   0.07924   0.89499   -0.40779   0.18186   0.07924   0.89499   -0.40779   0.18186   102.13623
11   0.07925   0.89447   -0.40843   0.18241   0.07925   0.89447   -0.40843   0.18241   102.07825
12   0.07924   0.89471   -0.40754   0.18293   0.07924   0.89471   -0.40754   0.18293   102.14844
13   0.07922   0.89496   -0.40745   0.18259   0.07922   0.89496   -0.40745   0.18259   102.14844
14   0.07929   0.89447   -0.40819   0.18265   0.07929   0.89447   -0.40819   0.18265   102.07825
15   0.07923   0.89465   -0.40785   0.18305   0.07923   0.89465   -0.40785   0.18305   102.06604
16   0.07917   0.89544   -0.40654   0.18210   0.07917   0.89544   -0.40654   0.18210   102.12708
17   0.07913   0.89529   -0.40678   0.18216   0.07913   0.89529   -0.40678   0.18216   102.12708
18   0.07920   0.89486   -0.40754   0.18265   0.07920   0.89486   -0.40754   0.18265   102.05688
19   0.07921   0.89517   -0.40706   0.18213   0.07921   0.89517   -0.40706   0.18213   102.06909
20   0.07914   0.89486   -0.40767   0.18232   0.07914   0.89486   -0.40767   0.18232   102.16064
21   0.07916   0.89483   -0.40751   0.18262   0.07916   0.89483   -0.40751   0.18262   102.13928
22   0.07924   0.89474   -0.40745   0.18336   0.07924   0.89474   -0.40745   0.18336   102.02026
23   0.07922   0.89492   -0.40736   0.18308   0.07922   0.89492   -0.40736   0.18308   102.11487
24   0.07914   0.89511   -0.40681   0.18284   0.07914   0.89511   -0.40681   0.18284   102.20947
25   0.07922   0.89496   -0.40767   0.18220   0.07922   0.89496   -0.40767   0.18220   102.12402
26   0.07927   0.89514   -0.40684   0.18256   0.07927   0.89514   -0.40684   0.18256   102.04163
27   0.07924   0.89517   -0.40660   0.18354   0.07924   0.89517   -0.40660   0.18354   102.05383
28   0.07918   0.89529   -0.40715   0.18134   0.07918   0.89529   -0.40715   0.18134   102.20642
29   0.07923   0.89535   -0.40645   0.18265   0.07923   0.89535   -0.40645   0.18265   102.06604
30   0.07925   0.89554   -0.40593   0.18259   0.07925   0.89554   -0.40593   0.18259   102.04468
31   0.07909   0.89492   -0.40754   0.18204   0.07909   0.89492   -0.40754   0.18204   102.15149
32   0.07912   0.89483   -0.40812   0.18134   0.07912   0.89483   -0.40812   0.18134   102.16370
33   0.07919   0.89550   -0.40690   0.18137   0.07919   0.89550   -0.40690   0.18137   102.04468
34   0.07922   0.89511   -0.40706   0.18287   0.07922   0.89511   -0.40706   0.18287   102.05688
35   0.07919   0.89480   -0.40736   0.18317   0.07919   0.89480   -0.40736   0.18317   102.13623
36   0.07919   0.89492   -0.40727   0.18274   0.07919   0.89492   -0.40727   0.18274   102.12708
37   0.07922   0.89496   -0.40736   0.18241   0.07922   0.89496   -0.40736   0.18241   102.11487
38   0.07920   0.89550   -0.40590   0.18339   0.07920   0.89550   -0.40590   0.18339   102.10266
39   0.07924   0.89517   -0.40727   0.18192   0.07924   0.89517   -0.40727   0.18192   102.13623
40   0.07926   0.89505   -0.40721   0.18271   0.07926   0.89505   -0.40721   0.18271   102.06604
41   0.07923   0.89529   -0.40629   0.18354   0.07923   0.89529   -0.40629   0.18354   102.06604
42   0.07924   0.89608   -0.40529   0.18149   0.07924   0.89608   -0.40529   0.18149   102.11182
43   0.07920   0.89569   -0.40553   0.18293   0.07920   0.89569   -0.40553   0.18293   102.11487
44   0.07920   0.89538   -0.40614   0.18323   0.07920   0.89538   -0.40614   0.18323   102.04468
45   0.07912   0.89544   -0.40626   0.18302   0.07912   0.89544   -0.40626   0.18302   102.09351
46   0.07916   0.89544   -0.40614   0.18299   0.07916   0.89544   -0.40614   0.18299   102.12708
47   0.07917   0.89529   -0.40632   0.18342   0.07917   0.89529   -0.40632   0.18342   102.11487
48   0.07922   0.89520   -0.40626   0.18394   0.07922   0.89520   -0.40626   0.18394   102.04468
49   0.07917   0.89602   -0.40483   0.18332   0.07917   0.89602   -0.40483   0.18332   102.12708
50   0.07917   0.89538   -0.40638   0.18241   0.07917   0.89538   -0.40638   0.18241   102.17285
51   0.07923   0.89541   -0.40559   0.18424   0.07923   0.89541   -0.40559   0.18424   102.09045
52   0.07926   0.89486   -0.40709   0.18351   0.07926   0.89486   -0.40709   0.18351   102.05383
53   0.07923   0.89560   -0.40587   0.18329   0.07923   0.89560   -0.40587   0.18329   102.14844
54   0.07921   0.89560   -0.40538   0.18369   0.07921   0.89560   -0.40538   0.18369   102.14844
55   0.07930   0.89550   -0.40544   0.18403   0.07930   0.89550   -0.40544   0.18403   102.06604
56   0.07927   0.89560   -0.40605   0.18302   0.07927   0.89560   -0.40605   0.18302   102.09045
57   0.07919   0.89572   -0.40522   0.18384   0.07919   0.89572   -0.40522   0.18384   102.17285
58   0.07921   0.89544   -0.40501   0.18561   0.07921   0.89544   -0.40501   0.18561   102.11487
59   0.07930   0.89517   -0.40568   0.18500   0.07930   0.89517   -0.40568   0.18500   102.04163
60   0.07926   0.89544   -0.40648   0.18271   0.07926   0.89544   -0.40648   0.18271   102.06604
61   0.07913   0.89550   -0.40590   0.18323   0.07913   0.89550   -0.40590   0.18323   102.19727
62   0.07919   0.89572   -0.40587   0.18253   0.07919   0.89572   -0.40587   0.18253   102.11487
63   0.07927   0.89554   -0.40553   0.18342   0.07927   0.89554   -0.40553   0.18342   102.04163
64   0.07909   0.89587   -0.40535   0.18278   0.07909   0.89587   -0.40535   0.18278   102.07214
65   0.07911   0.89569   -0.40449   0.18537   0.07911   0.89569   -0.40449   0.18537   102.15149
66   0.07936   0.89590   -0.40419   0.18497   0.07936   0.89590   -0.40419   0.18497   102.09961
67   0.07937   0.89578   -0.40489   0.18400   0.07937   0.89578   -0.40489   0.18400   102.06299
68   0.07926   0.89608   -0.40394   0.18451   0.07926   0.89608   -0.40394   0.18451   102.09961
69   0.07922   0.89578   -0.40516   0.18354   0.07922   0.89578   -0.40516   0.18354   102.13623
70   0.07931   0.89621   -0.40400   0.18418   0.07931   0.89621   -0.40400   0.18418   102.04163
71   0.07926   0.89605   -0.40397   0.18491   0.07926   0.89605   -0.40397   0.18491   102.07825
72   0.07918   0.89554   -0.40574   0.18317   0.07918   0.89554   -0.40574   0.18317   102.11487
73   0.07919   0.89581   -0.40471   0.18458   0.07919   0.89581   -0.40471   0.18458   102.09045
74   0.07924   0.89572   -0.40455   0.18519   0.07924   0.89572   -0.40455   0.18519   102.06604
75   0.07922   0.89639   -0.40425   0.18262   0.07922   0.89639   -0.40425   0.18262   102.09045
76   0.07926   0.89651   -0.40309   0.18470   0.07926   0.89651   -0.40309   0.18470   102.13623
77   0.07926   0.89615   -0.40394   0.18445   0.07926   0.89615   -0.40394   0.18445   102.04163
78   0.07924   0.89645   -0.40327   0.18427   0.07924   0.89645   -0.40327   0.18427   102.07825
79   0.07924   0.89676   -0.40294   0.18336   0.07924   0.89676   -0.40294   0.18336   102.11182
80   0.07924   0.89654   -0.40306   0.18433   0.07924   0.89654   -0.40306   0.18433   102.14844
81   0.07932   0.89648   -0.40318   0.18439   0.07932   0.89648   -0.40318   0.18439   102.02942
82   0.07925   0.89636   -0.40333   0.18430   0.07925   0.89636   -0.40333   0.18430   102.09961
83   0.07927   0.89651   -0.40306   0.18427   0.07927   0.89651   -0.40306   0.18427   102.16980
84   0.07935   0.89642   -0.40330   0.18415   0.07935   0.89642   -0.40330   0.18415   102.12097
85   0.07927   0.89608   -0.40312   0.18616   0.07927   0.89608   -0.40312   0.18616   102.00806
86   0.07902   0.89666   -0.40336   0.18281   0.07902   0.89666   -0.40336   0.18281   102.10571
87   0.07913   0.89602   -0.40428   0.18430   0.07913   0.89602   -0.40428   0.18430   102.15149
88   0.07928   0.89593   -0.40446   0.18461   0.07928   0.89593   -0.40446   0.18461   102.07825
89   0.07931   0.89618   -0.40336   0.18519   0.07931   0.89618   -0.40336   0.18519   102.02942
90   0.07922   0.89651   -0.40352   0.18314   0.07922   0.89651   -0.40352   0.18314   102.14844
91   0.07914   0.89657   -0.40287   0.18445   0.07914   0.89657   -0.40287   0.18445   102.12708
92   0.07928   0.89663   -0.40251   0.18497   0.07928   0.89663   -0.40251   0.18497   102.06604
93   0.07933   0.89608   -0.40428   0.18427   0.07933   0.89608   -0.40428   0.18427   102.05383
94   0.07925   0.89621   -0.40394   0.18406   0.07925   0.89621   -0.40394   0.18406   102.13623
95   0.07917   0.89627   -0.40269   0.18625   0.07917   0.89627   -0.40269   0.18625   102.16064
96   0.07930   0.89615   -0.40355   0.18506   0.07930   0.89615   -0.40355   0.18506   102.02942
97   0.07931   0.89618   -0.40333   0.18500   0.07931   0.89618   -0.40333   0.18500   102.06604
98   0.07923   0.89621   -0.40367   0.18448   0.07923   0.89621   -0.40367   0.18448   102.11182
99   0.07922   0.89633   -0.40297   0.18555   0.07922   0.89633   -0.40297   0.18555   102.14844
100   0.07935   0.89612   -0.40367   0.18497   0.07935   0.89612   -0.40367   0.18497   102.05078
101   0.07914   0.89639   -0.40272   0.18564   0.07914   0.89639   -0.40272   0.18564   102.10266
102   0.07890   0.89636   -0.40464   0.18192   0.07890   0.89636   -0.40464   0.18192   102.14539
103   0.07933   0.89657   -0.40226   0.18619   0.07933   0.89657   -0.40226   0.18619   102.08740
104   0.07934   0.89666   -0.40287   0.18433   0.07934   0.89666   -0.40287   0.18433   102.09961
105   0.07916   0.89676   -0.40324   0.18259   0.07916   0.89676   -0.40324   0.18259   102.12708
106   0.07912   0.89703   -0.40190   0.18433   0.07912   0.89703   -0.40190   0.18433   102.11487
107   0.07930   0.89749   -0.40095   0.18458   0.07930   0.89749   -0.40095   0.18458   101.99585
108   0.07929   0.89602   -0.40455   0.18363   0.07929   0.89602   -0.40455   0.18363   102.08740
109   0.07917   0.89639   -0.40336   0.18448   0.07917   0.89639   -0.40336   0.18448   102.12708
110   0.07922   0.89648   -0.40272   0.18543   0.07922   0.89648   -0.40272   0.18543   102.05688
111   0.07928   0.89663   -0.40327   0.18384   0.07928   0.89663   -0.40327   0.18384   102.03247
112   0.07917   0.89660   -0.40318   0.18384   0.07917   0.89660   -0.40318   0.18384   102.11487
113   0.07915   0.89657   -0.40281   0.18464   0.07915   0.89657   -0.40281   0.18464   102.13928
114   0.07919   0.89676   -0.40214   0.18558   0.07919   0.89676   -0.40214   0.18558   102.02332
115   0.07921   0.89712   -0.40248   0.18311   0.07921   0.89712   -0.40248   0.18311   102.05688
116   0.07913   0.89703   -0.40220   0.18387   0.07913   0.89703   -0.40220   0.18387   102.11487
117   0.07917   0.89669   -0.40318   0.18311   0.07917   0.89669   -0.40318   0.18311   102.18506
118   0.07925   0.89645   -0.40297   0.18476   0.07925   0.89645   -0.40297   0.18476   102.04468
119   0.07926   0.89673   -0.40260   0.18451   0.07926   0.89673   -0.40260   0.18451   102.05383
120   0.07916   0.89654   -0.40321   0.18342   0.07916   0.89654   -0.40321   0.18342   102.16064
121   0.07922   0.89648   -0.40300   0.18455   0.07922   0.89648   -0.40300   0.18455   102.13623
122   0.07937   0.89651   -0.40245   0.18543   0.07937   0.89651   -0.40245   0.18543   101.98364
123   0.07927   0.89709   -0.40199   0.18442   0.07927   0.89709   -0.40199   0.18442   102.05383
124   0.07919   0.89691   -0.40275   0.18345   0.07919   0.89691   -0.40275   0.18345   102.17285
125   0.07923   0.89676   -0.40239   0.18485   0.07923   0.89676   -0.40239   0.18485   102.09045
126   0.07927   0.89703   -0.40181   0.18445   0.07927   0.89703   -0.40181   0.18445   102.00806
127   0.07913   0.89654   -0.40330   0.18369   0.07913   0.89654   -0.40330   0.18369   102.10571
128   0.07909   0.89724   -0.40132   0.18497   0.07909   0.89724   -0.40132   0.18497   102.11792
129   0.07920   0.89685   -0.40251   0.18479   0.07920   0.89685   -0.40251   0.18479   102.07825
130   0.07926   0.89694   -0.40248   0.18381   0.07926   0.89694   -0.40248   0.18381   102.02026
131   0.07924   0.89660   -0.40287   0.18409   0.07924   0.89660   -0.40287   0.18409   102.12402
132   0.07917   0.89663   -0.40275   0.18461   0.07917   0.89663   -0.40275   0.18461   102.12708
133   0.07925   0.89682   -0.40233   0.18455   0.07925   0.89682   -0.40233   0.18455   102.07825
134   0.07927   0.89663   -0.40205   0.18580   0.07927   0.89663   -0.40205   0.18580   101.99585
135   0.07925   0.89654   -0.40236   0.18555   0.07925   0.89654   -0.40236   0.18555   102.14844
136   0.07924   0.89758   -0.40065   0.18448   0.07924   0.89758   -0.40065   0.18448   102.07825
137   0.07931   0.89688   -0.40187   0.18525   0.07931   0.89688   -0.40187   0.18525   102.04163
138   0.07933   0.89688   -0.40107   0.18656   0.07933   0.89688   -0.40107   0.18656   102.06299
139   0.07923   0.89660   -0.40287   0.18445   0.07923   0.89660   -0.40287   0.18445   102.12402
140   0.07922   0.89737   -0.40095   0.18494   0.07922   0.89737   -0.40095   0.18494   102.04468
141   0.07916   0.89737   -0.40080   0.18534   0.07916   0.89737   -0.40080   0.18534   102.06909
142   0.07921   0.89694   -0.40281   0.18323   0.07921   0.89694   -0.40281   0.18323   102.07825
143   0.07919   0.89666   -0.40199   0.18561   0.07919   0.89666   -0.40199   0.18561   102.11487
144   0.07923   0.89715   -0.40135   0.18506   0.07923   0.89715   -0.40135   0.18506   102.03247
145   0.07922   0.89691   -0.40190   0.18528   0.07922   0.89691   -0.40190   0.18528   102.06604
146   0.07922   0.89666   -0.40260   0.18500   0.07922   0.89666   -0.40260   0.18500   102.11487
147   0.07927   0.89685   -0.40272   0.18387   0.07927   0.89685   -0.40272   0.18387   102.14539
148   0.07933   0.89721   -0.40159   0.18418   0.07933   0.89721   -0.40159   0.18418   101.98364
149   0.07926   0.89727   -0.40147   0.18442   0.07926   0.89727   -0.40147   0.18442   102.09961
150   0.07921   0.89688   -0.40239   0.18455   0.07921   0.89688   -0.40239   0.18455   102.14844
151   0.07929   0.89651   -0.40275   0.18500   0.07929   0.89651   -0.40275   0.18500   102.07825
152   0.07938   0.89682   -0.40193   0.18528   0.07938   0.89682   -0.40193   0.18528   101.98364
153   0.07926   0.89663   -0.40284   0.18384   0.07926   0.89663   -0.40284   0.18384   102.12402
154   0.07913   0.89636   -0.40300   0.18543   0.07913   0.89636   -0.40300   0.18543   102.17285
155   0.07919   0.89651   -0.40297   0.18455   0.07919   0.89651   -0.40297   0.18455   102.03247
156   0.07926   0.89694   -0.40168   0.18577   0.07926   0.89694   -0.40168   0.18577   102.02026
157   0.07919   0.89666   -0.40233   0.18534   0.07919   0.89666   -0.40233   0.18534   102.10266
158   0.07919   0.89673   -0.40245   0.18473   0.07919   0.89673   -0.40245   0.18473   102.13623
159   0.07926   0.89654   -0.40233   0.18567   0.07926   0.89654   -0.40233   0.18567   102.03247
160   0.07931   0.89639   -0.40324   0.18470   0.07931   0.89639   -0.40324   0.18470   102.07520
161   0.07925   0.89630   -0.40352   0.18464   0.07925   0.89630   -0.40352   0.18464   102.13623
162   0.07922   0.89673   -0.40257   0.18430   0.07922   0.89673   -0.40257   0.18430   102.13623
163   0.07937   0.89691   -0.40239   0.18384   0.07937   0.89691   -0.40239   0.18384   101.98364
164   0.07931   0.89666   -0.40248   0.18448   0.07931   0.89666   -0.40248   0.18448   102.06604
165   0.07936   0.89673   -0.40312   0.18372   0.07936   0.89673   -0.40312   0.18372   102.10876
166   0.07933   0.89657   -0.40278   0.18531   0.07933   0.89657   -0.40278   0.18531   102.09961
167   0.07930   0.89639   -0.40327   0.18488   0.07930   0.89639   -0.40327   0.18488   102.05383
168   0.07922   0.89669   -0.40312   0.18348   0.07922   0.89669   -0.40312   0.18348   102.05688
169   0.07915   0.89697   -0.40266   0.18320   0.07915   0.89697   -0.40266   0.18320   102.10266
170   0.07924   0.89676   -0.40202   0.18574   0.07924   0.89676   -0.40202   0.18574   102.06604
171   0.07920   0.89688   -0.40159   0.18607   0.07920   0.89688   -0.40159   0.18607   102.04468
172   0.07922   0.89630   -0.40321   0.18509   0.07922   0.89630   -0.40321   0.18509   102.11487
173   0.07920   0.89663   -0.40205   0.18564   0.07920   0.89663   -0.40205   0.18564   102.09045
174   0.07923   0.89624   -0.40349   0.18513   0.07923   0.89624   -0.40349   0.18513   102.06604
175   0.07925   0.89666   -0.40254   0.18427   0.07925   0.89666   -0.40254   0.18427   102.06604
176   0.07924   0.89642   -0.40321   0.18464   0.07924   0.89642   -0.40321   0.18464   102.14844
177   0.07930   0.89715   -0.40059   0.18628   0.07930   0.89715   -0.40059   0.18628   102.02026
178   0.07929   0.89666   -0.40245   0.18494   0.07929   0.89666   -0.40245   0.18494   102.06604
179   0.07928   0.89715   -0.40114   0.18580   0.07928   0.89715   -0.40114   0.18580   102.09961
180   0.07923   0.89685   -0.40172   0.18537   0.07923   0.89685   -0.40172   0.18537   102.13623
181   0.07938   0.89688   -0.40150   0.18616   0.07938   0.89688   -0.40150   0.18616   101.98364
182   0.07928   0.89621   -0.40306   0.18598   0.07928   0.89621   -0.40306   0.18598   102.07825
183   0.07904   0.89642   -0.40294   0.18522   0.07904   0.89642   -0.40294   0.18522   102.14233
184   0.07903   0.89621   -0.40300   0.18628   0.07903   0.89621   -0.40300   0.18628   102.11792
185   0.07936   0.89669   -0.40184   0.18668   0.07936   0.89669   -0.40184   0.18668   101.98364
186   0.07931   0.89605   -0.40391   0.18506   0.07931   0.89605   -0.40391   0.18506   102.07520
187   0.07917   0.89651   -0.40306   0.18448   0.07917   0.89651   -0.40306   0.18448   102.12708
188   0.07915   0.89676   -0.40251   0.18455   0.07915   0.89676   -0.40251   0.18455   102.08130
189   0.07928   0.89581   -0.40428   0.18525   0.07928   0.89581   -0.40428   0.18525   102.03247
190   0.07928   0.89596   -0.40449   0.18384   0.07928   0.89596   -0.40449   0.18384   102.05383
191   0.07918   0.89615   -0.40373   0.18500   0.07918   0.89615   -0.40373   0.18500   102.16064
192   0.07924   0.89615   -0.40339   0.18543   0.07924   0.89615   -0.40339   0.18543   102.09045
193   0.07931   0.89605   -0.40400   0.18494   0.07931   0.89605   -0.40400   0.18494   102.02026
194   0.07928   0.89618   -0.40370   0.18455   0.07928   0.89618   -0.40370   0.18455   102.06604
195   0.07914   0.89633   -0.40287   0.18577   0.07914   0.89633   -0.40287   0.18577   102.12708
196   0.07915   0.89608   -0.40345   0.18543   0.07915   0.89608   -0.40345   0.18543   102.03552
197   0.07922   0.89639   -0.40309   0.18513   0.07922   0.89639   -0.40309   0.18513   102.00806
198   0.07919   0.89575   -0.40437   0.18482   0.07919   0.89575   -0.40437   0.18482   102.12708
199   0.07916   0.89621   -0.40358   0.18464   0.07916   0.89621   -0.40358   0.18464   102.12708
200   0.07933   0.89602   -0.40364   0.18537   0.07933   0.89602   -0.40364   0.18537   102.04163
201   0.07931   0.89587   -0.40431   0.18476   0.07931   0.89587   -0.40431   0.18476   102.08740
202   0.07926   0.89636   -0.40345   0.18406   0.07926   0.89636   -0.40345   0.18406   102.13623
203   0.07926   0.89605   -0.40361   0.18525   0.07926   0.89605   -0.40361   0.18525   102.11182
204   0.07936   0.89593   -0.40407   0.18519   0.07936   0.89593   -0.40407   0.18519   102.04163
205   0.07938   0.89618   -0.40358   0.18445   0.07938   0.89618   -0.40358   0.18445   102.06299
206   0.07924   0.89630   -0.40315   0.18537   0.07924   0.89630   -0.40315   0.18537   102.13623
207   0.07928   0.89605   -0.40361   0.18485   0.07928   0.89605   -0.40361   0.18485   102.09961
208   0.07931   0.89608   -0.40355   0.18543   0.07931   0.89608   -0.40355   0.18543   102.07520
209   0.07924   0.89590   -0.40449   0.18470   0.07924   0.89590   -0.40449   0.18470   102.10266
210   0.07913   0.89581   -0.40437   0.18497   0.07913   0.89581   -0.40437   0.18497   102.12708
211   0.07923   0.89593   -0.40407   0.18500   0.07923   0.89593   -0.40407   0.18500   102.04468
212   0.07921   0.89615   -0.40364   0.18494   0.07921   0.89615   -0.40364   0.18494   102.05688
213   0.07918   0.89602   -0.40440   0.18427   0.07918   0.89602   -0.40440   0.18427   102.12708
214   0.07921   0.89538   -0.40568   0.18415   0.07921   0.89538   -0.40568   0.18415   102.07825
215   0.07925   0.89596   -0.40431   0.18506   0.07925   0.89596   -0.40431   0.18506   102.04468
216   0.07924   0.89526   -0.40535   0.18537   0.07924   0.89526   -0.40535   0.18537   102.10266
217   0.07920   0.89590   -0.40580   0.18171   0.07920   0.89590   -0.40580   0.18171   102.17285
218   0.07924   0.89581   -0.40443   0.18464   0.07924   0.89581   -0.40443   0.18464   102.10266
219   0.07928   0.89575   -0.40468   0.18464   0.07928   0.89575   -0.40468   0.18464   102.06604
220   0.07926   0.89511   -0.40562   0.18525   0.07926   0.89511   -0.40562   0.18525   102.16980
221   0.07923   0.89560   -0.40504   0.18482   0.07923   0.89560   -0.40504   0.18482   102.19421
222   0.07926   0.89584   -0.40425   0.18555   0.07926   0.89584   -0.40425   0.18555   102.03247
223   0.07922   0.89572   -0.40437   0.18580   0.07922   0.89572   -0.40437   0.18580   102.07825
224   0.07912   0.89584   -0.40452   0.18406   0.07912   0.89584   -0.40452   0.18406   102.17285
225   0.07917   0.89587   -0.40422   0.18522   0.07917   0.89587   -0.40422   0.18522   102.13928
226   0.07924   0.89575   -0.40443   0.18531   0.07924   0.89575   -0.40443   0.18531   102.02026
227   0.07923   0.89572   -0.40458   0.18500   0.07923   0.89572   -0.40458   0.18500   102.05383
228   0.07916   0.89547   -0.40553   0.18390   0.07916   0.89547   -0.40553   0.18390   102.19727
229   0.07920   0.89529   -0.40568   0.18503   0.07920   0.89529   -0.40568   0.18503   102.13623
230   0.07931   0.89608   -0.40434   0.18421   0.07931   0.89608   -0.40434   0.18421   102.00806
231   0.07930   0.89544   -0.40550   0.18461   0.07930   0.89544   -0.40550   0.18461   102.05383
232   0.07923   0.89578   -0.40529   0.18351   0.07923   0.89578   -0.40529   0.18351   102.16064
233   0.07925   0.89547   -0.40547   0.18436   0.07925   0.89547   -0.40547   0.18436   102.13623
234   0.07935   0.89596   -0.40400   0.18494   0.07935   0.89596   -0.40400   0.18494   102.07520
235   0.07927   0.89547   -0.40535   0.18427   0.07927   0.89547   -0.40535   0.18427   102.07825
236   0.07916   0.89520   -0.40654   0.18329   0.07916   0.89520   -0.40654   0.18329   102.18506
237   0.07919   0.89541   -0.40580   0.18384   0.07919   0.89541   -0.40580   0.18384   102.10266
238   0.07920   0.89529   -0.40547   0.18473   0.07920   0.89529   -0.40547   0.18473   102.07825
239   0.07922   0.89520   -0.40638   0.18360   0.07922   0.89520   -0.40638   0.18360   102.09045
240   0.07916   0.89502   -0.40614   0.18522   0.07916   0.89502   -0.40614   0.18522   102.14844
241   0.07924   0.89526   -0.40535   0.18537   0.07924   0.89526   -0.40535   0.18537   102.10266
242   0.07922   0.89480   -0.40736   0.18317   0.07922   0.89480   -0.40736   0.18317   102.09045
243   0.07922   0.89465   -0.40727   0.18430   0.07922   0.89465   -0.40727   0.18430   102.11487
244   0.07927   0.89489   -0.40663   0.18455   0.07927   0.89489   -0.40663   0.18455   102.09045
245   0.07928   0.89447   -0.40721   0.18571   0.07928   0.89447   -0.40721   0.18571   102.08740
246   0.07929   0.89496   -0.40654   0.18442   0.07929   0.89496   -0.40654   0.18442   102.09961
247   0.07923   0.89471   -0.40684   0.18455   0.07923   0.89471   -0.40684   0.18455   102.12402
248   0.07931   0.89517   -0.40593   0.18525   0.07931   0.89517   -0.40593   0.18525   102.06604
249   0.07926   0.89462   -0.40675   0.18616   0.07926   0.89462   -0.40675   0.18616   102.04163
250   0.07922   0.89471   -0.40745   0.18339   0.07922   0.89471   -0.40745   0.18339   102.10266
251   0.07915   0.89496   -0.40629   0.18458   0.07915   0.89496   -0.40629   0.18458   102.15149
252   0.07923   0.89511   -0.40651   0.18394   0.07923   0.89511   -0.40651   0.18394   102.04468
253   0.07921   0.89499   -0.40721   0.18323   0.07921   0.89499   -0.40721   0.18323   102.05688
254   0.07915   0.89496   -0.40645   0.18433   0.07915   0.89496   -0.40645   0.18433   102.16064
255   0.07922   0.89514   -0.40623   0.18369   0.07922   0.89514   -0.40623   0.18369   102.14844
256   0.07932   0.89508   -0.40632   0.18430   0.07932   0.89508   -0.40632   0.18430   102.00806
257   0.07926   0.89496   -0.40620   0.18476   0.07926   0.89496   -0.40620   0.18476   102.11182
258   0.07922   0.89557   -0.40608   0.18268   0.07922   0.89557   -0.40608   0.18268   102.18201
259   0.07927   0.89523   -0.40590   0.18470   0.07927   0.89523   -0.40590   0.18470   102.09045
260   0.07937   0.89502   -0.40663   0.18430   0.07937   0.89502   -0.40663   0.18430   102.00500
261   0.07927   0.89499   -0.40629   0.18451   0.07927   0.89499   -0.40629   0.18451   102.12402
262   0.07922   0.89529   -0.40638   0.18323   0.07922   0.89529   -0.40638   0.18323   102.17285
263   0.07924   0.89529   -0.40568   0.18467   0.07924   0.89529   -0.40568   0.18467   102.09045
264   0.07916   0.89511   -0.40687   0.18296   0.07916   0.89511   -0.40687   0.18296   102.02332
265   0.07892   0.89557   -0.40620   0.18213   0.07892   0.89557   -0.40620   0.18213   102.13318
266   0.07924   0.89544   -0.40526   0.18485   0.07924   0.89544   -0.40526   0.18485   102.16980
267   0.07931   0.89489   -0.40660   0.18476   0.07931   0.89489   -0.40660   0.18476   102.06604
268   0.07929   0.89517   -0.40693   0.18278   0.07929   0.89517   -0.40693   0.18278   102.04163
269   0.07921   0.89517   -0.40660   0.18339   0.07921   0.89517   -0.40660   0.18339   102.10266
270   0.07922   0.89523   -0.40641   0.18305   0.07922   0.89523   -0.40641   0.18305   102.18201
271   0.07937   0.89492   -0.40681   0.18397   0.07937   0.89492   -0.40681   0.18397   102.09656
272   0.07931   0.89550   -0.40526   0.18406   0.07931   0.89550   -0.40526   0.18406   102.07520
273   0.07929   0.89569   -0.40532   0.18339   0.07929   0.89569   -0.40532   0.18339   102.16980
274   0.07928   0.89526   -0.40635   0.18332   0.07928   0.89526   -0.40635   0.18332   102.12402
275   0.07934   0.89544   -0.40577   0.18369   0.07934   0.89544   -0.40577   0.18369   102.09961
276   0.07934   0.89532   -0.40629   0.18342   0.07934   0.89532   -0.40629   0.18342   102.08740
277   0.07923   0.89523   -0.40651   0.18332   0.07923   0.89523   -0.40651   0.18332   102.11182
278   0.07922   0.89492   -0.40739   0.18326   0.07922   0.89492   -0.40739   0.18326   102.07825
279   0.07917   0.89486   -0.40675   0.18464   0.07917   0.89486   -0.40675   0.18464   102.09045
280   0.07922   0.89532   -0.40635   0.18326   0.07922   0.89532   -0.40635   0.18326   102.14844
281   0.07917   0.89535   -0.40590   0.18415   0.07917   0.89535   -0.40590   0.18415   102.11487
282   0.07927   0.89514   -0.40645   0.18406   0.07927   0.89514   -0.40645   0.18406   102.00806
283   0.07927   0.89557   -0.40663   0.18143   0.07927   0.89557   -0.40663   0.18143   102.13623
284   0.07936   0.89529   -0.40620   0.18360   0.07936   0.89529   -0.40620   0.18360   102.16675
285   0.07930   0.89554   -0.40541   0.18369   0.07930   0.89554   -0.40541   0.18369   102.09961
286   0.07919   0.89538   -0.40617   0.18329   0.07919   0.89538   -0.40617   0.18329   102.02332
287   0.07926   0.89505   -0.40748   0.18192   0.07926   0.89505   -0.40748   0.18192   102.16980
288   0.07933   0.89526   -0.40684   0.18229   0.07933   0.89526   -0.40684   0.18229   102.14539
289   0.07940   0.89557   -0.40577   0.18363   0.07940   0.89557   -0.40577   0.18363   102.03857
290   0.07932   0.89550   -0.40559   0.18351   0.07932   0.89550   -0.40559   0.18351   102.09961
291   0.07917   0.89572   -0.40580   0.18238   0.07917   0.89572   -0.40580   0.18238   102.19727
292   0.07914   0.89581   -0.40522   0.18302   0.07914   0.89581   -0.40522   0.18302   102.17285
293   0.07925   0.89560   -0.40584   0.18296   0.07925   0.89560   -0.40584   0.18296   102.04468
294   0.07928   0.89541   -0.40654   0.18220   0.07928   0.89541   -0.40654   0.18220   102.04163
295   0.07916   0.89547   -0.40681   0.18159   0.07916   0.89547   -0.40681   0.18159   102.14844
296   0.07918   0.89502   -0.40684   0.18363   0.07918   0.89502   -0.40684   0.18363   102.17285
297   0.07932   0.89505   -0.40675   0.18326   0.07932   0.89505   -0.40675   0.18326   102.00806
298   0.07930   0.89554   -0.40620   0.18223   0.07930   0.89554   -0.40620   0.18223   102.04163
299   0.07922   0.89508   -0.40678   0.18293   0.07922   0.89508   -0.40678   0.18293   102.18201
300   0.07945   0.89502   -0.40654   0.18409   0.07945   0.89502   -0.40654   0.18409   102.14233
301   0.07931   0.89508   -0.40699   0.18256   0.07931   0.89508   -0.40699   0.18256   102.06604
302   0.07905   0.89550   -0.40678   0.18064   0.07905   0.89550   -0.40678   0.18064   102.07214
303   0.07938   0.89465   -0.40751   0.18363   0.07938   0.89465   -0.40751   0.18363   102.19116
304   0.07939   0.89428   -0.40925   0.18213   0.07939   0.89428   -0.40925   0.18213   102.09656
305   0.07922   0.89459   -0.40727   0.18488   0.07922   0.89459   -0.40727   0.18488   101.99890
306   0.07905   0.89456   -0.40819   0.18274   0.07905   0.89456   -0.40819   0.18274   102.10571
307   0.07913   0.89517   -0.40645   0.18351   0.07913   0.89517   -0.40645   0.18351   102.15149
308   0.07923   0.89517   -0.40641   0.18384   0.07923   0.89517   -0.40641   0.18384   102.04468
309   0.07921   0.89526   -0.40623   0.18329   0.07921   0.89526   -0.40623   0.18329   102.05688
310   0.07913   0.89557   -0.40605   0.18293   0.07913   0.89557   -0.40605   0.18293   102.13928
311   0.07919   0.89462   -0.40757   0.18354   0.07919   0.89462   -0.40757   0.18354   102.11487
312   0.07928   0.89511   -0.40623   0.18442   0.07928   0.89511   -0.40623   0.18442   102.06604
313   0.07922   0.89480   -0.40626   0.18574   0.07922   0.89480   -0.40626   0.18574   102.07825
314   0.07929   0.89550   -0.40477   0.18601   0.07929   0.89550   -0.40477   0.18601   102.12402
315   0.07928   0.89496   -0.40638   0.18494   0.07928   0.89496   -0.40638   0.18494   102.05383
316   0.07929   0.89508   -0.40626   0.18464   0.07929   0.89508   -0.40626   0.18464   102.06604
317   0.07926   0.89520   -0.40593   0.18467   0.07926   0.89520   -0.40593   0.18467   102.12402
318   0.07920   0.89505   -0.40706   0.18332   0.07920   0.89505   -0.40706   0.18332   102.12708
319   0.07922   0.89459   -0.40745   0.18387   0.07922   0.89459   -0.40745   0.18387   102.04468
320   0.07916   0.89569   -0.40565   0.18259   0.07916   0.89569   -0.40565   0.18259   102.08130
321   0.07914   0.89563   -0.40577   0.18290   0.07914   0.89563   -0.40577   0.18290   102.15149
322   0.07916   0.89471   -0.40730   0.18378   0.07916   0.89471   -0.40730   0.18378   102.12708
323   0.07922   0.89502   -0.40678   0.18387   0.07922   0.89502   -0.40678   0.18387   102.04468
324   0.07920   0.89520   -0.40605   0.18421   0.07920   0.89520   -0.40605   0.18421   102.09045
325   0.07920   0.89483   -0.40699   0.18397   0.07920   0.89483   -0.40699   0.18397   102.19421
326   0.07929   0.89486   -0.40666   0.18461   0.07929   0.89486   -0.40666   0.18461   102.07825
327   0.07929   0.89538   -0.40635   0.18274   0.07929   0.89538   -0.40635   0.18274   102.04163
328   0.07925   0.89468   -0.40733   0.18421   0.07925   0.89468   -0.40733   0.18421   102.14844
329   0.07919   0.89450   -0.40794   0.18363   0.07919   0.89450   -0.40794   0.18363   102.18506
330   0.07932   0.89486   -0.40699   0.18363   0.07932   0.89486   -0.40699   0.18363   102.07520
331   0.07929   0.89459   -0.40721   0.18451   0.07929   0.89459   -0.40721   0.18451   102.02942
332   0.07919   0.89483   -0.40745   0.18284   0.07919   0.89483   -0.40745   0.18284   102.17285
333   0.07914   0.89499   -0.40703   0.18354   0.07914   0.89499   -0.40703   0.18354   102.11487
334   0.07921   0.89438   -0.40788   0.18406   0.07921   0.89438   -0.40788   0.18406   102.03247
335   0.07922   0.89456   -0.40776   0.18345   0.07922   0.89456   -0.40776   0.18345   102.10266
336   0.07913   0.89514   -0.40742   0.18152   0.07913   0.89514   -0.40742   0.18152   102.18506
337   0.07918   0.89483   -0.40733   0.18317   0.07918   0.89483   -0.40733   0.18317   102.12708
338   0.07923   0.89526   -0.40672   0.18238   0.07923   0.89526   -0.40672   0.18238   102.06604
339   0.07924   0.89468   -0.40721   0.18421   0.07924   0.89468   -0.40721   0.18421   102.11182
340   0.07918   0.89502   -0.40687   0.18342   0.07918   0.89502   -0.40687   0.18342   102.18506
341   0.07928   0.89465   -0.40761   0.18354   0.07928   0.89465   -0.40761   0.18354   102.08740
342   0.07928   0.89480   -0.40764   0.18296   0.07928   0.89480   -0.40764   0.18296   102.07825
343   0.07921   0.89508   -0.40724   0.18244   0.07921   0.89508   -0.40724   0.18244   102.10266
344   0.07923   0.89517   -0.40638   0.18354   0.07923   0.89517   -0.40638   0.18354   102.12402
345   0.07930   0.89483   -0.40724   0.18345   0.07930   0.89483   -0.40724   0.18345   102.06604
346   0.07922   0.89502   -0.40748   0.18204   0.07922   0.89502   -0.40748   0.18204   102.11487
347   0.07916   0.89544   -0.40672   0.18168   0.07916   0.89544   -0.40672   0.18168   102.12708
348   0.07917   0.89456   -0.40779   0.18421   0.07917   0.89456   -0.40779   0.18421   102.09045
349   0.07926   0.89517   -0.40660   0.18345   0.07926   0.89517   -0.40660   0.18345   102.04163
350   0.07918   0.89508   -0.40709   0.18253   0.07918   0.89508   -0.40709   0.18253   102.12708
351   0.07918   0.89526   -0.40709   0.18171   0.07918   0.89526   -0.40709   0.18171   102.13623
352   0.07928   0.89492   -0.40703   0.18351   0.07928   0.89492   -0.40703   0.18351   102.04163
353   0.07926   0.89483   -0.40712   0.18363   0.07926   0.89483   -0.40712   0.18363   102.07825
354   0.07920   0.89523   -0.40672   0.18265   0.07920   0.89523   -0.40672   0.18265   102.11487
355   0.07920   0.89496   -0.40693   0.18348   0.07920   0.89496   -0.40693   0.18348   102.16064
356   0.07933   0.89492   -0.40696   0.18381   0.07933   0.89492   -0.40696   0.18381   102.04163
357   0.07936   0.89434   -0.40791   0.18473   0.07936   0.89434   -0.40791   0.18473   102.09961
358   0.07930   0.89453   -0.40761   0.18421   0.07930   0.89453   -0.40761   0.18421   102.16980
359   0.07922   0.89441   -0.40876   0.18244   0.07922   0.89441   -0.40876   0.18244   102.14844
360   0.07931   0.89502   -0.40696   0.18290   0.07931   0.89502   -0.40696   0.18290   102.02026
361   0.07919   0.89505   -0.40712   0.18262   0.07919   0.89505   -0.40712   0.18262   102.09045
362   0.07912   0.89563   -0.40635   0.18159   0.07912   0.89563   -0.40635   0.18159   102.18506
363   0.07919   0.89499   -0.40629   0.18467   0.07919   0.89499   -0.40629   0.18467   102.09045
364   0.07929   0.89526   -0.40684   0.18250   0.07929   0.89526   -0.40684   0.18250   102.02942
365   0.07929   0.89496   -0.40757   0.18259   0.07929   0.89496   -0.40757   0.18259   102.13623
366   0.07924   0.89492   -0.40785   0.18149   0.07924   0.89492   -0.40785   0.18149   102.18201
367   0.07928   0.89529   -0.40681   0.18213   0.07928   0.89529   -0.40681   0.18213   102.07825
368   0.07926   0.89477   -0.40788   0.18250   0.07926   0.89477   -0.40788   0.18250   102.06604
369   0.07926   0.89450   -0.40883   0.18143   0.07926   0.89450   -0.40883   0.18143   102.15759
370   0.07920   0.89486   -0.40724   0.18357   0.07920   0.89486   -0.40724   0.18357   102.14844
371   0.07926   0.89505   -0.40721   0.18287   0.07926   0.89505   -0.40721   0.18287   102.06604
372   0.07927   0.89465   -0.40819   0.18223   0.07927   0.89465   -0.40819   0.18223   102.09961
373   0.07922   0.89511   -0.40730   0.18232   0.07922   0.89511   -0.40730   0.18232   102.14844
374   0.07920   0.89517   -0.40715   0.18192   0.07920   0.89517   -0.40715   0.18192   102.11487
375   0.07911   0.89483   -0.40764   0.18281   0.07911   0.89483   -0.40764   0.18281   102.11792
376   0.07916   0.89529   -0.40709   0.18155   0.07916   0.89529   -0.40709   0.18155   102.11487
377   0.07913   0.89496   -0.40706   0.18284   0.07913   0.89496   -0.40706   0.18284   102.17285
378   0.07921   0.89505   -0.40739   0.18250   0.07921   0.89505   -0.40739   0.18250   102.11487
379   0.07920   0.89547   -0.40648   0.18201   0.07920   0.89547   -0.40648   0.18201   102.11487
380   0.07918   0.89520   -0.40715   0.18149   0.07918   0.89520   -0.40715   0.18149   102.13623
381   0.07919   0.89517   -0.40730   0.18201   0.07919   0.89517   -0.40730   0.18201   102.13623
382   0.07925   0.89483   -0.40806   0.18195   0.07925   0.89483   -0.40806   0.18195   102.04468
383   0.07908   0.89496   -0.40809   0.18101   0.07908   0.89496   -0.40809   0.18101   102.13013
384   0.07902   0.89477   -0.40770   0.18284   0.07902   0.89477   -0.40770   0.18284   102.17590
385   0.07934   0.89483   -0.40675   0.18461   0.07934   0.89483   -0.40675   0.18461   102.08740
386   0.07938   0.89508   -0.40693   0.18323   0.07938   0.89508   -0.40693   0.18323   102.01721
387   0.07918   0.89523   -0.40712   0.18220   0.07918   0.89523   -0.40712   0.18220   102.10266
388   0.07901   0.89517   -0.40767   0.18085   0.07901   0.89517   -0.40767   0.18085   102.20032
389   0.07915   0.89514   -0.40638   0.18378   0.07915   0.89514   -0.40638   0.18378   102.06909
390   0.07924   0.89499   -0.40681   0.18369   0.07924   0.89499   -0.40681   0.18369   102.04468
391   0.07913   0.89514   -0.40745   0.18088   0.07913   0.89514   -0.40745   0.18088   102.16370
392   0.07911   0.89541   -0.40657   0.18204   0.07911   0.89541   -0.40657   0.18204   102.18506
393   0.07918   0.89511   -0.40663   0.18357   0.07918   0.89511   -0.40663   0.18357   102.03247
394   0.07933   0.89514   -0.40669   0.18311   0.07933   0.89514   -0.40669   0.18311   102.07520
395   0.07920   0.89532   -0.40727   0.18152   0.07920   0.89532   -0.40727   0.18152   102.16064
396   0.07914   0.89502   -0.40715   0.18268   0.07914   0.89502   -0.40715   0.18268   102.16064
397   0.07929   0.89529   -0.40645   0.18290   0.07929   0.89529   -0.40645   0.18290   102.05383
398   0.07926   0.89529   -0.40678   0.18223   0.07926   0.89529   -0.40678   0.18223   102.09045
399   0.07923   0.89560   -0.40620   0.18207   0.07923   0.89560   -0.40620   0.18207   102.19421
400   0.07933   0.89550   -0.40648   0.18174   0.07933   0.89550   -0.40648   0.18174   102.11182
401   0.07926   0.89526   -0.40648   0.18336   0.07926   0.89526   -0.40648   0.18336   102.05383
402   0.07920   0.89526   -0.40761   0.18082   0.07920   0.89526   -0.40761   0.18082   102.12708
403   0.07914   0.89517   -0.40745   0.18177   0.07914   0.89517   -0.40745   0.18177   102.20947
404   0.07925   0.89508   -0.40660   0.18311   0.07925   0.89508   -0.40660   0.18311   102.15759
405   0.07931   0.89499   -0.40727   0.18223   0.07931   0.89499   -0.40727   0.18223   102.09961
406   0.07926   0.89496   -0.40709   0.18284   0.07926   0.89496   -0.40709   0.18284   102.13623
407   0.07917   0.89508   -0.40709   0.18238   0.07917   0.89508   -0.40709   0.18238   102.13928
408   0.07930   0.89523   -0.40681   0.18259   0.07930   0.89523   -0.40681   0.18259   102.09961
409   0.07932   0.89520   -0.40696   0.18259   0.07932   0.89520   -0.40696   0.18259   102.09961
410   0.07924   0.89520   -0.40684   0.18271   0.07924   0.89520   -0.40684   0.18271   102.14844
411   0.07930   0.89566   -0.40587   0.18256   0.07930   0.89566   -0.40587   0.18256   102.06604
412   0.07926   0.89541   -0.40611   0.18284   0.07926   0.89541   -0.40611   0.18284   102.12402
413   0.07931   0.89532   -0.40687   0.18186   0.07931   0.89532   -0.40687   0.18186   102.09961
414   0.07926   0.89541   -0.40590   0.18351   0.07926   0.89541   -0.40590   0.18351   102.12402
415   0.07924   0.89486   -0.40709   0.18351   0.07924   0.89486   -0.40709   0.18351   102.07825
416   0.07917   0.89505   -0.40696   0.18287   0.07917   0.89505   -0.40696   0.18287   102.10266
417   0.07913   0.89514   -0.40672   0.18287   0.07913   0.89514   -0.40672   0.18287   102.13928
418   0.07918   0.89520   -0.40675   0.18235   0.07918   0.89520   -0.40675   0.18235   102.16064
419   0.07926   0.89535   -0.40623   0.18323   0.07926   0.89535   -0.40623   0.18323   102.04163
420   0.07925   0.89550   -0.40568   0.18378   0.07925   0.89550   -0.40568   0.18378   102.07825
421   0.07914   0.89508   -0.40687   0.18281   0.07914   0.89508   -0.40687   0.18281   102.18506
422   0.07923   0.89517   -0.40669   0.18308   0.07923   0.89517   -0.40669   0.18308   102.14844
423   0.07930   0.89541   -0.40556   0.18448   0.07930   0.89541   -0.40556   0.18448   102.04163
424   0.07924   0.89544   -0.40602   0.18345   0.07924   0.89544   -0.40602   0.18345   102.13623
425   0.07918   0.89550   -0.40617   0.18250   0.07918   0.89550   -0.40617   0.18250   102.19421
426   0.07927   0.89538   -0.40593   0.18360   0.07927   0.89538   -0.40593   0.18360   102.09045
427   0.07933   0.89511   -0.40696   0.18268   0.07933   0.89511   -0.40696   0.18268   102.04163
428   0.07921   0.89520   -0.40727   0.18174   0.07921   0.89520   -0.40727   0.18174   102.13623
429   0.07914   0.89517   -0.40660   0.18314   0.07914   0.89517   -0.40660   0.18314   102.19727
430   0.07919   0.89480   -0.40776   0.18256   0.07919   0.89480   -0.40776   0.18256   102.10266
431   0.07926   0.89529   -0.40614   0.18378   0.07926   0.89529   -0.40614   0.18378   102.02026
432   0.07916   0.89599   -0.40547   0.18174   0.07916   0.89599   -0.40547   0.18174   102.12708
433   0.07914   0.89593   -0.40553   0.18204   0.07914   0.89593   -0.40553   0.18204   102.13928
434   0.07927   0.89550   -0.40605   0.18274   0.07927   0.89550   -0.40605   0.18274   102.06604
435   0.07927   0.89520   -0.40712   0.18183   0.07927   0.89520   -0.40712   0.18183   102.04163
436   0.07919   0.89578   -0.40620   0.18079   0.07919   0.89578   -0.40620   0.18079   102.14844
437   0.07919   0.89578   -0.40599   0.18162   0.07919   0.89578   -0.40599   0.18162   102.14844
438   0.07930   0.89535   -0.40654   0.18265   0.07930   0.89535   -0.40654   0.18265   102.06604
439   0.07930   0.89538   -0.40654   0.18207   0.07930   0.89538   -0.40654   0.18207   102.06604
440   0.07923   0.89538   -0.40651   0.18192   0.07923   0.89538   -0.40651   0.18192   102.14844
441   0.07928   0.89483   -0.40703   0.18348   0.07928   0.89483   -0.40703   0.18348   102.11182
442   0.07924   0.89514   -0.40718   0.18244   0.07924   0.89514   -0.40718   0.18244   102.06604
443   0.07918   0.89572   -0.40681   0.17988   0.07918   0.89572   -0.40681   0.17988   102.13623
444   0.07908   0.89569   -0.40617   0.18159   0.07908   0.89569   -0.40617   0.18159   102.16370
445   0.07921   0.89505   -0.40712   0.18290   0.07921   0.89505   -0.40712   0.18290   102.10266
446   0.07917   0.89541   -0.40678   0.18171   0.07917   0.89541   -0.40678   0.18171   102.10266
447   0.07917   0.89596   -0.40486   0.18345   0.07917   0.89596   -0.40486   0.18345   102.14844
448   0.07920   0.89608   -0.40483   0.18259   0.07920   0.89608   -0.40483   0.18259   102.09045
449   0.07926   0.89621   -0.40425   0.18342   0.07926   0.89621   -0.40425   0.18342   102.06604
450   0.07922   0.89608   -0.40434   0.18369   0.07922   0.89608   -0.40434   0.18369   102.12402
451   0.07920   0.89621   -0.40434   0.18345   0.07920   0.89621   -0.40434   0.18345   102.17285
452   0.07931   0.89676   -0.40327   0.18284   0.07931   0.89676   -0.40327   0.18284   102.06604
453   0.07930   0.89636   -0.40446   0.18278   0.07930   0.89636   -0.40446   0.18278   102.02026
454   0.07926   0.89651   -0.40400   0.18223   0.07926   0.89651   -0.40400   0.18223   102.14844
455   0.07923   0.89654   -0.40345   0.18351   0.07923   0.89654   -0.40345   0.18351   102.13623
456   0.07930   0.89630   -0.40416   0.18320   0.07930   0.89630   -0.40416   0.18320   102.02026
457   0.07922   0.89654   -0.40403   0.18226   0.07922   0.89654   -0.40403   0.18226   102.03247
458   0.07911   0.89624   -0.40446   0.18271   0.07911   0.89624   -0.40446   0.18271   102.17590
459   0.07918   0.89608   -0.40437   0.18357   0.07918   0.89608   -0.40437   0.18357   102.14844
460   0.07922   0.89590   -0.40483   0.18342   0.07922   0.89590   -0.40483   0.18342   102.04468
461   0.07924   0.89608   -0.40513   0.18213   0.07924   0.89608   -0.40513   0.18213   102.05383
462   0.07912   0.89627   -0.40440   0.18314   0.07912   0.89627   -0.40440   0.18314   102.17285
463   0.07920   0.89633   -0.40489   0.18134   0.07920   0.89633   -0.40489   0.18134   102.11487
464   0.07915   0.89676   -0.40358   0.18201   0.07915   0.89676   -0.40358   0.18201   102.01111
465   0.07911   0.89587   -0.40385   0.18555   0.07911   0.89587   -0.40385   0.18555   102.10571
466   0.07924   0.89557   -0.40529   0.18424   0.07924   0.89557   -0.40529   0.18424   102.19421
467   0.07933   0.89605   -0.40489   0.18250   0.07933   0.89605   -0.40489   0.18250   102.07520
468   0.07930   0.89581   -0.40504   0.18308   0.07930   0.89581   -0.40504   0.18308   102.04163
469   0.07921   0.89575   -0.40504   0.18400   0.07921   0.89575   -0.40504   0.18400   102.12402
470   0.07914   0.89590   -0.40477   0.18360   0.07914   0.89590   -0.40477   0.18360   102.17285
471   0.07922   0.89578   -0.40492   0.18369   0.07922   0.89578   -0.40492   0.18369   102.05688
472   0.07921   0.89599   -0.40504   0.18296   0.07921   0.89599   -0.40504   0.18296   102.07825
473   0.07922   0.89593   -0.40522   0.18287   0.07922   0.89593   -0.40522   0.18287   102.10266
474   0.07922   0.89581   -0.40464   0.18464   0.07922   0.89581   -0.40464   0.18464   102.07825
475   0.07925   0.89590   -0.40455   0.18415   0.07925   0.89590   -0.40455   0.18415   102.07825
476   0.07924   0.89590   -0.40553   0.18207   0.07924   0.89590   -0.40553   0.18207   102.05383
477   0.07922   0.89608   -0.40419   0.18390   0.07922   0.89608   -0.40419   0.18390   102.12402
478   0.07927   0.89584   -0.40495   0.18375   0.07927   0.89584   -0.40495   0.18375   102.07825
479   0.07929   0.89547   -0.40547   0.18421   0.07929   0.89547   -0.40547   0.18421   102.08740
480   0.07922   0.89572   -0.40547   0.18281   0.07922   0.89572   -0.40547   0.18281   102.13623
481   0.07922   0.89642   -0.40382   0.18323   0.07922   0.89642   -0.40382   0.18323   102.14844
482   0.07933   0.89612   -0.40431   0.18375   0.07933   0.89612   -0.40431   0.18375   102.01721
483   0.07932   0.89575   -0.40455   0.18482   0.07932   0.89575   -0.40455   0.18482   102.09961
484   0.07931   0.89618   -0.40410   0.18372   0.07931   0.89618   -0.40410   0.18372   102.16980
485   0.07915   0.89599   -0.40416   0.18473   0.07915   0.89599   -0.40416   0.18473   102.12708
486   0.07912   0.89590   -0.40471   0.18345   0.07912   0.89590   -0.40471   0.18345   102.01111
487   0.07914   0.89605   -0.40529   0.18213   0.07914   0.89605   -0.40529   0.18213   102.06909
488   0.07922   0.89612   -0.40425   0.18339   0.07922   0.89612   -0.40425   0.18339   102.18201
489   0.07935   0.89593   -0.40480   0.18394   0.07935   0.89593   -0.40480   0.18394   102.01721
490   0.07929   0.89602   -0.40449   0.18348   0.07929   0.89602   -0.40449   0.18348   102.02942
491   0.07921   0.89602   -0.40446   0.18357   0.07921   0.89602   -0.40446   0.18357   102.12402
492   0.07916   0.89605   -0.40474   0.18311   0.07916   0.89605   -0.40474   0.18311   102.18506
493   0.07935   0.89596   -0.40385   0.18531   0.07935   0.89596   -0.40385   0.18531   102.01721
494   0.07930   0.89602   -0.40437   0.18424   0.07930   0.89602   -0.40437   0.18424   102.05383
495   0.07920   0.89596   -0.40413   0.18470   0.07920   0.89596   -0.40413   0.18470   102.14844
496   0.07924   0.89612   -0.40425   0.18369   0.07924   0.89612   -0.40425   0.18369   102.15759
497   0.07929   0.89612   -0.40428   0.18397   0.07929   0.89612   -0.40428   0.18397   102.05383
498   0.07926   0.89630   -0.40361   0.18412   0.07926   0.89630   -0.40361   0.18412   102.07825
499   0.07918   0.89618   -0.40428   0.18320   0.07918   0.89618   -0.40428   0.18320   102.14844
500   0.07931   0.89578   -0.40431   0.18543   0.07931   0.89578   -0.40431   0.18543   102.14539
501   0.07918   0.89569   -0.40529   0.18339   0.07918   0.89569   -0.40529   0.18339   102.05688
502   0.07898   0.89566   -0.40559   0.18305   0.07898   0.89566   -0.40559   0.18305   102.03857
503   0.07917   0.89517   -0.40635   0.18363   0.07917   0.89517   -0.40635   0.18363   102.19727
504   0.07934   0.89584   -0.40486   0.18357   0.07934   0.89584   -0.40486   0.18357   102.07520
505   0.07919   0.89590   -0.40480   0.18418   0.07919   0.89590   -0.40480   0.18418   102.06909
506   0.07914   0.89599   -0.40480   0.18320   0.07914   0.89599   -0.40480   0.18320   102.06909
507   0.07922   0.89602   -0.40397   0.18464   0.07922   0.89602   -0.40397   0.18464   102.16980
508   0.07929   0.89578   -0.40446   0.18522   0.07929   0.89578   -0.40446   0.18522   102.04163
509   0.07927   0.89563   -0.40501   0.18442   0.07927   0.89563   -0.40501   0.18442   102.05383
510   0.07923   0.89572   -0.40489   0.18403   0.07923   0.89572   -0.40489   0.18403   102.13623
511   0.07920   0.89627   -0.40349   0.18467   0.07920   0.89627   -0.40349   0.18467   102.11487
512   0.07920   0.89560   -0.40498   0.18445   0.07920   0.89560   -0.40498   0.18445   102.05688
513   0.07913   0.89599   -0.40480   0.18284   0.07913   0.89599   -0.40480   0.18284   102.09351
514   0.07916   0.89618   -0.40379   0.18467   0.07916   0.89618   -0.40379   0.18467   102.11487
515   0.07923   0.89645   -0.40291   0.18479   0.07923   0.89645   -0.40291   0.18479   102.09045
516   0.07922   0.89660   -0.40257   0.18497   0.07922   0.89660   -0.40257   0.18497   102.07825
517   0.07919   0.89639   -0.40352   0.18439   0.07919   0.89639   -0.40352   0.18439   102.11487
518   0.07929   0.89572   -0.40403   0.18638   0.07929   0.89572   -0.40403   0.18638   102.11182
519   0.07929   0.89596   -0.40413   0.18509   0.07929   0.89596   -0.40413   0.18509   102.02026
520   0.07930   0.89615   -0.40385   0.18503   0.07930   0.89615   -0.40385   0.18503   102.05383
521   0.07923   0.89660   -0.40303   0.18436   0.07923   0.89660   -0.40303   0.18436   102.13623
522   0.07925   0.89648   -0.40321   0.18442   0.07925   0.89648   -0.40321   0.18442   102.07825
523   0.07938   0.89657   -0.40327   0.18409   0.07938   0.89657   -0.40327   0.18409   101.95923
524   0.07930   0.89636   -0.40339   0.18439   0.07930   0.89636   -0.40339   0.18439   102.11182
525   0.07916   0.89676   -0.40318   0.18302   0.07916   0.89676   -0.40318   0.18302   102.13928
526   0.07917   0.89621   -0.40339   0.18534   0.07917   0.89621   -0.40339   0.18534   102.08130
527   0.07922   0.89590   -0.40449   0.18412   0.07922   0.89590   -0.40449   0.18412   102.02026
528   0.07920   0.89578   -0.40471   0.18421   0.07920   0.89578   -0.40471   0.18421   102.13623
529   0.07913   0.89563   -0.40522   0.18360   0.07913   0.89563   -0.40522   0.18360   102.18506
530   0.07925   0.89627   -0.40364   0.18436   0.07925   0.89627   -0.40364   0.18436   102.06604
531   0.07925   0.89612   -0.40385   0.18445   0.07925   0.89612   -0.40385   0.18445   102.04468
532   0.07924   0.89651   -0.40318   0.18378   0.07924   0.89651   -0.40318   0.18378   102.12402
533   0.07919   0.89633   -0.40284   0.18583   0.07919   0.89633   -0.40284   0.18583   102.13623
534   0.07931   0.89615   -0.40382   0.18458   0.07931   0.89615   -0.40382   0.18458   102.07520
535   0.07933   0.89621   -0.40419   0.18332   0.07933   0.89621   -0.40419   0.18332   102.05383
536   0.07924   0.89608   -0.40410   0.18421   0.07924   0.89608   -0.40410   0.18421   102.14844
537   0.07926   0.89618   -0.40388   0.18436   0.07926   0.89618   -0.40388   0.18436   102.06604
538   0.07926   0.89633   -0.40321   0.18509   0.07926   0.89633   -0.40321   0.18509   102.05383
539   0.07922   0.89587   -0.40458   0.18433   0.07922   0.89587   -0.40458   0.18433   102.07825
540   0.07912   0.89648   -0.40245   0.18558   0.07912   0.89648   -0.40245   0.18558   102.11487
541   0.07923   0.89651   -0.40278   0.18458   0.07923   0.89651   -0.40278   0.18458   102.03247
542   0.07920   0.89642   -0.40306   0.18451   0.07920   0.89642   -0.40306   0.18451   102.06909
543   0.07920   0.89697   -0.40257   0.18375   0.07920   0.89697   -0.40257   0.18375   102.09045
544   0.07922   0.89651   -0.40312   0.18406   0.07922   0.89651   -0.40312   0.18406   102.05688
545   0.07929   0.89651   -0.40278   0.18506   0.07929   0.89651   -0.40278   0.18506   102.04163
546   0.07927   0.89673   -0.40242   0.18506   0.07927   0.89673   -0.40242   0.18506   102.05383
547   0.07922   0.89682   -0.40251   0.18442   0.07922   0.89682   -0.40251   0.18442   102.10266
548   0.07931   0.89627   -0.40297   0.18632   0.07931   0.89627   -0.40297   0.18632   102.07520
549   0.07932   0.89676   -0.40178   0.18628   0.07932   0.89676   -0.40178   0.18628   102.01721
550   0.07927   0.89663   -0.40263   0.18494   0.07927   0.89663   -0.40263   0.18494   102.11182
551   0.07926   0.89706   -0.40129   0.18574   0.07926   0.89706   -0.40129   0.18574   102.11182
552   0.07929   0.89669   -0.40199   0.18564   0.07929   0.89669   -0.40199   0.18564   101.98364
553   0.07922   0.89673   -0.40266   0.18503   0.07922   0.89673   -0.40266   0.18503   102.03247
554   0.07913   0.89669   -0.40300   0.18378   0.07913   0.89669   -0.40300   0.18378   102.09351
555   0.07918   0.89621   -0.40336   0.18531   0.07918   0.89621   -0.40336   0.18531   102.10266
556   0.07926   0.89648   -0.40278   0.18531   0.07926   0.89648   -0.40278   0.18531   101.99585
557   0.07924   0.89663   -0.40214   0.18613   0.07924   0.89663   -0.40214   0.18613   102.05383
558   0.07915   0.89645   -0.40257   0.18571   0.07915   0.89645   -0.40257   0.18571   102.15149
559   0.07927   0.89636   -0.40318   0.18470   0.07927   0.89636   -0.40318   0.18470   102.06604
560   0.07934   0.89612   -0.40358   0.18528   0.07934   0.89612   -0.40358   0.18528   101.98364
561   0.07926   0.89621   -0.40349   0.18543   0.07926   0.89621   -0.40349   0.18543   102.07825
562   0.07922   0.89590   -0.40410   0.18488   0.07922   0.89590   -0.40410   0.18488   102.17285
563   0.07928   0.89633   -0.40297   0.18595   0.07928   0.89633   -0.40297   0.18595   102.05383
564   0.07935   0.89645   -0.40278   0.18567   0.07935   0.89645   -0.40278   0.18567   102.00500
565   0.07934   0.89685   -0.40126   0.18644   0.07934   0.89685   -0.40126   0.18644   102.08740
566   0.07927   0.89682   -0.40135   0.18699   0.07927   0.89682   -0.40135   0.18699   102.07825
567   0.07923   0.89648   -0.40251   0.18586   0.07923   0.89648   -0.40251   0.18586   102.05383
568   0.07918   0.89627   -0.40269   0.18610   0.07918   0.89627   -0.40269   0.18610   102.03247
569   0.07921   0.89612   -0.40287   0.18632   0.07921   0.89612   -0.40287   0.18632   102.12402
570   0.07917   0.89666   -0.40168   0.18650   0.07917   0.89666   -0.40168   0.18650   102.06909
571   0.07923   0.89660   -0.40196   0.18610   0.07923   0.89660   -0.40196   0.18610   102.00806
572   0.07924   0.89666   -0.40275   0.18403   0.07924   0.89666   -0.40275   0.18403   102.03247
573   0.07918   0.89651   -0.40284   0.18528   0.07918   0.89651   -0.40284   0.18528   102.11487
574   0.07927   0.89605   -0.40352   0.18571   0.07927   0.89605   -0.40352   0.18571   102.02026
575   0.07927   0.89679   -0.40187   0.18531   0.07927   0.89679   -0.40187   0.18531   102.03247
576   0.07926   0.89642   -0.40263   0.18604   0.07926   0.89642   -0.40263   0.18604   102.11182
577   0.07927   0.89657   -0.40196   0.18625   0.07927   0.89657   -0.40196   0.18625   102.09961
578   0.07932   0.89724   -0.40052   0.18619   0.07932   0.89724   -0.40052   0.18619   101.95007
579   0.07922   0.89697   -0.40114   0.18659   0.07922   0.89697   -0.40114   0.18659   102.04468
580   0.07915   0.89648   -0.40223   0.18595   0.07915   0.89648   -0.40223   0.18595   102.11487
581   0.07920   0.89685   -0.40184   0.18546   0.07920   0.89685   -0.40184   0.18546   102.05688
582   0.07921   0.89642   -0.40287   0.18534   0.07921   0.89642   -0.40287   0.18534   102.02026
583   0.07900   0.89663   -0.40287   0.18418   0.07900   0.89663   -0.40287   0.18418   102.08435
584   0.07899   0.89593   -0.40345   0.18628   0.07899   0.89593   -0.40345   0.18628   102.17896
585   0.07934   0.89624   -0.40266   0.18677   0.07934   0.89624   -0.40266   0.18677   102.00500
586   0.07944   0.89691   -0.40080   0.18760   0.07944   0.89691   -0.40080   0.18760   101.98059
587   0.07919   0.89657   -0.40239   0.18610   0.07919   0.89657   -0.40239   0.18610   102.09045
588   0.07911   0.89679   -0.40254   0.18430   0.07911   0.89679   -0.40254   0.18430   102.10571
589   0.07937   0.89654   -0.40165   0.18711   0.07937   0.89654   -0.40165   0.18711   101.98364
590   0.07936   0.89645   -0.40233   0.18592   0.07936   0.89645   -0.40233   0.18592   102.00500
591   0.07923   0.89654   -0.40257   0.18543   0.07923   0.89654   -0.40257   0.18543   102.11182
592   0.07923   0.89636   -0.40294   0.18564   0.07923   0.89636   -0.40294   0.18564   102.11182
593   0.07925   0.89608   -0.40349   0.18549   0.07925   0.89608   -0.40349   0.18549   102.03247
594   0.07923   0.89624   -0.40294   0.18595   0.07923   0.89624   -0.40294   0.18595   102.09045
595   0.07909   0.89630   -0.40352   0.18488   0.07909   0.89630   -0.40352   0.18488   102.13928
596   0.07917   0.89578   -0.40397   0.18625   0.07917   0.89578   -0.40397   0.18625   102.10266
597   0.07924   0.89608   -0.40333   0.18534   0.07924   0.89608   -0.40333   0.18534   102.04468
598   0.07920   0.89642   -0.40260   0.18610   0.07920   0.89642   -0.40260   0.18610   102.06909
599   0.07920   0.89630   -0.40336   0.18500   0.07920   0.89630   -0.40336   0.18500   102.14844
600   0.07933   0.89602   -0.40382   0.18491   0.07933   0.89602   -0.40382   0.18491   102.06299
601   0.07933   0.89624   -0.40367   0.18503   0.07933   0.89624   -0.40367   0.18503   102.08740
602   0.07926   0.89615   -0.40315   0.18604   0.07926   0.89615   -0.40315   0.18604   102.09961
603   0.07929   0.89572   -0.40474   0.18522   0.07929   0.89572   -0.40474   0.18522   102.11182
604   0.07939   0.89596   -0.40358   0.18543   0.07939   0.89596   -0.40358   0.18543   102.08740
605   0.07937   0.89590   -0.40416   0.18488   0.07937   0.89590   -0.40416   0.18488   102.10876
606   0.07928   0.89630   -0.40330   0.18506   0.07928   0.89630   -0.40330   0.18506   102.11182
607   0.07930   0.89627   -0.40300   0.18619   0.07930   0.89627   -0.40300   0.18619   102.05383
608   0.07926   0.89587   -0.40422   0.18494   0.07926   0.89587   -0.40422   0.18494   102.06604
609   0.07916   0.89599   -0.40410   0.18464   0.07916   0.89599   -0.40410   0.18464   102.13928
610   0.07922   0.89615   -0.40355   0.18491   0.07922   0.89615   -0.40355   0.18491   102.13623
611   0.07924   0.89627   -0.40333   0.18506   0.07924   0.89627   -0.40333   0.18506   102.04468
612   0.07926   0.89554   -0.40489   0.18561   0.07926   0.89554   -0.40489   0.18561   102.06604
613   0.07920   0.89547   -0.40519   0.18433   0.07920   0.89547   -0.40519   0.18433   102.16064
614   0.07923   0.89584   -0.40440   0.18509   0.07923   0.89584   -0.40440   0.18509   102.09045
615   0.07933   0.89590   -0.40452   0.18473   0.07933   0.89590   -0.40452   0.18473   101.99585
616   0.07926   0.89615   -0.40352   0.18525   0.07926   0.89615   -0.40352   0.18525   102.09961
617   0.07929   0.89581   -0.40373   0.18616   0.07929   0.89581   -0.40373   0.18616   102.16980
618   0.07927   0.89563   -0.40464   0.18488   0.07927   0.89563   -0.40464   0.18488   102.09045
619   0.07934   0.89602   -0.40397   0.18494   0.07934   0.89602   -0.40397   0.18494   102.01721
620   0.07924   0.89560   -0.40446   0.18595   0.07924   0.89560   -0.40446   0.18595   102.10266
621   0.07917   0.89612   -0.40339   0.18586   0.07917   0.89612   -0.40339   0.18586   102.13928
622   0.07924   0.89569   -0.40461   0.18482   0.07924   0.89569   -0.40461   0.18482   102.06604
623   0.07922   0.89608   -0.40428   0.18397   0.07922   0.89608   -0.40428   0.18397   102.03247
624   0.07916   0.89605   -0.40382   0.18543   0.07916   0.89605   -0.40382   0.18543   102.14844
625   0.07917   0.89587   -0.40516   0.18287   0.07917   0.89587   -0.40516   0.18287   102.14844
626   0.07928   0.89599   -0.40388   0.18561   0.07928   0.89599   -0.40388   0.18561   102.03247
627   0.07924   0.89544   -0.40504   0.18528   0.07924   0.89544   -0.40504   0.18528   102.04468
628   0.07918   0.89581   -0.40446   0.18482   0.07918   0.89581   -0.40446   0.18482   102.14844
629   0.07924   0.89557   -0.40483   0.18506   0.07924   0.89557   -0.40483   0.18506   102.11182
630   0.07928   0.89511   -0.40568   0.18574   0.07928   0.89511   -0.40568   0.18574   102.06604
631   0.07931   0.89529   -0.40529   0.18537   0.07931   0.89529   -0.40529   0.18537   102.07520
632   0.07921   0.89575   -0.40483   0.18482   0.07921   0.89575   -0.40483   0.18482   102.12402
633   0.07929   0.89575   -0.40407   0.18574   0.07929   0.89575   -0.40407   0.18574   102.08740
634   0.07927   0.89587   -0.40422   0.18522   0.07927   0.89587   -0.40422   0.18522   102.05383
635   0.07921   0.89578   -0.40452   0.18455   0.07921   0.89578   -0.40452   0.18455   102.10266
636   0.07916   0.89578   -0.40452   0.18467   0.07916   0.89578   -0.40452   0.18467   102.16064
637   0.07923   0.89566   -0.40446   0.18558   0.07923   0.89566   -0.40446   0.18558   102.05383
638   0.07918   0.89572   -0.40458   0.18537   0.07918   0.89572   -0.40458   0.18537   102.11487
639   0.07920   0.89572   -0.40471   0.18494   0.07920   0.89572   -0.40471   0.18494   102.13623
640   0.07926   0.89581   -0.40446   0.18513   0.07926   0.89581   -0.40446   0.18513   102.04163
641   0.07929   0.89590   -0.40407   0.18488   0.07929   0.89590   -0.40407   0.18488   102.02026
642   0.07924   0.89572   -0.40489   0.18387   0.07924   0.89572   -0.40489   0.18387   102.12402
643   0.07922   0.89541   -0.40538   0.18436   0.07922   0.89541   -0.40538   0.18436   102.16064
644   0.07932   0.89587   -0.40434   0.18458   0.07932   0.89587   -0.40434   0.18458   102.05383
645   0.07932   0.89578   -0.40513   0.18363   0.07932   0.89578   -0.40513   0.18363   102.05383
646   0.07923   0.89544   -0.40553   0.18409   0.07923   0.89544   -0.40553   0.18409   102.14844
647   0.07924   0.89584   -0.40458   0.18424   0.07924   0.89584   -0.40458   0.18424   102.11182
648   0.07930   0.89575   -0.40419   0.18580   0.07930   0.89575   -0.40419   0.18580   101.98364
649   0.07921   0.89529   -0.40617   0.18342   0.07921   0.89529   -0.40617   0.18342   102.06909
650   0.07909   0.89584   -0.40529   0.18314   0.07909   0.89584   -0.40529   0.18314   102.13928
651   0.07916   0.89599   -0.40492   0.18339   0.07916   0.89599   -0.40492   0.18339   102.09045
652   0.07924   0.89587   -0.40468   0.18394   0.07924   0.89587   -0.40468   0.18394   102.00806
653   0.07926   0.89550   -0.40471   0.18555   0.07926   0.89550   -0.40471   0.18555   102.09961
654   0.07913   0.89523   -0.40593   0.18439   0.07913   0.89523   -0.40593   0.18439   102.20947
655   0.07922   0.89508   -0.40629   0.18412   0.07922   0.89508   -0.40629   0.18412   102.12402
656   0.07928   0.89587   -0.40461   0.18439   0.07928   0.89587   -0.40461   0.18439   102.02026
657   0.07924   0.89581   -0.40516   0.18271   0.07924   0.89581   -0.40516   0.18271   102.12402
658   0.07919   0.89557   -0.40617   0.18253   0.07919   0.89557   -0.40617   0.18253   102.16064
659   0.07929   0.89599   -0.40437   0.18439   0.07929   0.89599   -0.40437   0.18439   102.06604
660   0.07929   0.89581   -0.40501   0.18332   0.07929   0.89581   -0.40501   0.18332   102.04163
661   0.07923   0.89599   -0.40477   0.18311   0.07923   0.89599   -0.40477   0.18311   102.16064
662   0.07920   0.89535   -0.40602   0.18366   0.07920   0.89535   -0.40602   0.18366   102.13623
663   0.07922   0.89520   -0.40623   0.18400   0.07922   0.89520   -0.40623   0.18400   102.07825
664   0.07901   0.89575   -0.40522   0.18326   0.07901   0.89575   -0.40522   0.18326   102.05994
665   0.07897   0.89563   -0.40626   0.18201   0.07897   0.89563   -0.40626   0.18201   102.13318
666   0.07915   0.89529   -0.40635   0.18323   0.07915   0.89529   -0.40635   0.18323   102.11487
667   0.07927   0.89578   -0.40461   0.18476   0.07927   0.89578   -0.40461   0.18476   102.09045
668   0.07922   0.89560   -0.40522   0.18445   0.07922   0.89560   -0.40522   0.18445   102.11487
669   0.07913   0.89517   -0.40611   0.18430   0.07913   0.89517   -0.40611   0.18430   102.15149
670   0.07925   0.89563   -0.40486   0.18488   0.07925   0.89563   -0.40486   0.18488   102.05383
671   0.07927   0.89584   -0.40492   0.18366   0.07927   0.89584   -0.40492   0.18366   102.09961
672   0.07932   0.89544   -0.40580   0.18360   0.07932   0.89544   -0.40580   0.18360   102.09961
673   0.07926   0.89532   -0.40599   0.18400   0.07926   0.89532   -0.40599   0.18400   102.12402
674   0.07926   0.89593   -0.40449   0.18412   0.07926   0.89593   -0.40449   0.18412   102.07825
675   0.07928   0.89557   -0.40519   0.18433   0.07928   0.89557   -0.40519   0.18433   102.07825
676   0.07919   0.89535   -0.40587   0.18372   0.07919   0.89535   -0.40587   0.18372   102.13623
677   0.07918   0.89550   -0.40638   0.18226   0.07918   0.89550   -0.40638   0.18226   102.04468
678   0.07918   0.89541   -0.40584   0.18329   0.07918   0.89541   -0.40584   0.18329   102.01111
679   0.07921   0.89526   -0.40672   0.18250   0.07921   0.89526   -0.40672   0.18250   102.10266
680   0.07913   0.89499   -0.40736   0.18223   0.07913   0.89499   -0.40736   0.18223   102.18506
681   0.07922   0.89526   -0.40635   0.18363   0.07922   0.89526   -0.40635   0.18363   102.05688
682   0.07923   0.89550   -0.40580   0.18290   0.07923   0.89550   -0.40580   0.18290   102.03247
683   0.07925   0.89550   -0.40654   0.18183   0.07925   0.89550   -0.40654   0.18183   102.13623
684   0.07930   0.89483   -0.40696   0.18378   0.07930   0.89483   -0.40696   0.18378   102.14539
685   0.07923   0.89529   -0.40584   0.18424   0.07923   0.89529   -0.40584   0.18424   102.03247
686   0.07917   0.89541   -0.40645   0.18278   0.07917   0.89541   -0.40645   0.18278   102.05688
687   0.07921   0.89547   -0.40660   0.18189   0.07921   0.89547   -0.40660   0.18189   102.14844
688   0.07932   0.89508   -0.40684   0.18296   0.07932   0.89508   -0.40684   0.18296   102.15759
689   0.07936   0.89496   -0.40687   0.18351   0.07936   0.89496   -0.40687   0.18351   102.05078
690   0.07922   0.89508   -0.40693   0.18268   0.07922   0.89508   -0.40693   0.18268   102.07825
691   0.07906   0.89514   -0.40684   0.18247   0.07906   0.89514   -0.40684   0.18247   102.14233
692   0.07915   0.89526   -0.40641   0.18348   0.07915   0.89526   -0.40641   0.18348   102.09351
693   0.07927   0.89492   -0.40703   0.18326   0.07927   0.89492   -0.40703   0.18326   102.06604
694   0.07919   0.89547   -0.40672   0.18192   0.07919   0.89547   -0.40672   0.18192   102.07825
695   0.07914   0.89532   -0.40687   0.18204   0.07914   0.89532   -0.40687   0.18204   102.13928
696   0.07921   0.89468   -0.40767   0.18293   0.07921   0.89468   -0.40767   0.18293   102.12402
697   0.07928   0.89465   -0.40858   0.18162   0.07928   0.89465   -0.40858   0.18162   102.05383
698   0.07922   0.89502   -0.40730   0.18220   0.07922   0.89502   -0.40730   0.18220   102.12402
699   0.07924   0.89526   -0.40675   0.18262   0.07924   0.89526   -0.40675   0.18262   102.14844
700   0.07937   0.89477   -0.40751   0.18317   0.07937   0.89477   -0.40751   0.18317   102.08740
701   0.07924   0.89535   -0.40678   0.18174   0.07924   0.89535   -0.40678   0.18174   102.10266
702   0.07899   0.89520   -0.40703   0.18165   0.07899   0.89520   -0.40703   0.18165   102.16675
703   0.07924   0.89499   -0.40632   0.18470   0.07924   0.89499   -0.40632   0.18470   102.12402
704   0.07931   0.89489   -0.40715   0.18326   0.07931   0.89489   -0.40715   0.18326   102.09961
705   0.07907   0.89505   -0.40730   0.18250   0.07907   0.89505   -0.40730   0.18250   102.09351
706   0.07902   0.89523   -0.40715   0.18177   0.07902   0.89523   -0.40715   0.18177   102.15454
707   0.07917   0.89520   -0.40648   0.18394   0.07917   0.89520   -0.40648   0.18394   102.05688
708   0.07920   0.89529   -0.40599   0.18400   0.07920   0.89529   -0.40599   0.18400   102.09045
709   0.07914   0.89486   -0.40806   0.18140   0.07914   0.89486   -0.40806   0.18140   102.15149
710   0.07914   0.89486   -0.40745   0.18241   0.07914   0.89486   -0.40745   0.18241   102.09351
711   0.07925   0.89508   -0.40706   0.18278   0.07925   0.89508   -0.40706   0.18278   102.06604
712   0.07922   0.89441   -0.40867   0.18229   0.07922   0.89441   -0.40867   0.18229   102.10266
713   0.07923   0.89492   -0.40675   0.18406   0.07923   0.89492   -0.40675   0.18406   102.16980
714   0.07930   0.89468   -0.40724   0.18433   0.07930   0.89468   -0.40724   0.18433   102.18201
715   0.07927   0.89505   -0.40727   0.18244   0.07927   0.89505   -0.40727   0.18244   102.04163
716   0.07924   0.89492   -0.40751   0.18189   0.07924   0.89492   -0.40751   0.18189   102.14844
717   0.07915   0.89489   -0.40812   0.18110   0.07915   0.89489   -0.40812   0.18110   102.19727
718   0.07918   0.89450   -0.40846   0.18244   0.07918   0.89450   -0.40846   0.18244   102.09045
719   0.07919   0.89499   -0.40748   0.18250   0.07919   0.89499   -0.40748   0.18250   102.01111
720   0.07918   0.89453   -0.40858   0.18180   0.07918   0.89453   -0.40858   0.18180   102.12708
721   0.07917   0.89462   -0.40764   0.18369   0.07917   0.89462   -0.40764   0.18369   102.19727
722   0.07922   0.89480   -0.40718   0.18387   0.07922   0.89480   -0.40718   0.18387   102.06604
723   0.07924   0.89474   -0.40779   0.18268   0.07924   0.89474   -0.40779   0.18268   102.05383
724   0.07920   0.89477   -0.40831   0.18113   0.07920   0.89477   -0.40831   0.18113   102.13623
725   0.07915   0.89471   -0.40809   0.18226   0.07915   0.89471   -0.40809   0.18226   102.20642
726   0.07933   0.89431   -0.40837   0.18360   0.07933   0.89431   -0.40837   0.18360   102.11182
727   0.07927   0.89441   -0.40840   0.18311   0.07927   0.89441   -0.40840   0.18311   102.09045
728   0.07919   0.89486   -0.40800   0.18171   0.07919   0.89486   -0.40800   0.18171   102.14844
729   0.07919   0.89404   -0.40916   0.18339   0.07919   0.89404   -0.40916   0.18339   102.14844
730   0.07927   0.89459   -0.40794   0.18284   0.07927   0.89459   -0.40794   0.18284   102.06604
731   0.07922   0.89444   -0.40907   0.18149   0.07922   0.89444   -0.40907   0.18149   102.05688
732   0.07914   0.89471   -0.40822   0.18192   0.07914   0.89471   -0.40822   0.18192   102.13928
733   0.07912   0.89474   -0.40757   0.18287   0.07912   0.89474   -0.40757   0.18287   102.10571
734   0.07920   0.89471   -0.40806   0.18174   0.07920   0.89471   -0.40806   0.18174   102.10266
735   0.07913   0.89459   -0.40858   0.18134   0.07913   0.89459   -0.40858   0.18134   102.13928
736   0.07915   0.89477   -0.40831   0.18137   0.07915   0.89477   -0.40831   0.18137   102.15149
737   0.07920   0.89477   -0.40754   0.18290   0.07920   0.89477   -0.40754   0.18290   102.11487
738   0.07927   0.89459   -0.40764   0.18403   0.07927   0.89459   -0.40764   0.18403   102.11182
739   0.07926   0.89496   -0.40684   0.18360   0.07926   0.89496   -0.40684   0.18360   102.16980
740   0.07929   0.89450   -0.40730   0.18470   0.07929   0.89450   -0.40730   0.18470   102.12402
741   0.07936   0.89441   -0.40788   0.18445   0.07936   0.89441   -0.40788   0.18445   102.07520
742   0.07922   0.89459   -0.40751   0.18375   0.07922   0.89459   -0.40751   0.18375   102.13623
743   0.07922   0.89486   -0.40797   0.18174   0.07922   0.89486   -0.40797   0.18174   102.13623
744   0.07928   0.89438   -0.40828   0.18326   0.07928   0.89438   -0.40828   0.18326   102.07825
745   0.07925   0.89483   -0.40770   0.18299   0.07925   0.89483   -0.40770   0.18299   102.03247
746   0.07913   0.89471   -0.40889   0.18073   0.07913   0.89471   -0.40889   0.18073   102.18506
747   0.07908   0.89471   -0.40788   0.18268   0.07908   0.89471   -0.40788   0.18268   102.17590
748   0.07924   0.89502   -0.40773   0.18207   0.07924   0.89502   -0.40773   0.18207   102.02026
749   0.07922   0.89459   -0.40852   0.18165   0.07922   0.89459   -0.40852   0.18165   102.07825
750   0.07914   0.89508   -0.40724   0.18177   0.07914   0.89508   -0.40724   0.18177   102.19727
751   0.07919   0.89450   -0.40800   0.18317   0.07919   0.89450   -0.40800   0.18317   102.12708
752   0.07929   0.89459   -0.40806   0.18284   0.07929   0.89459   -0.40806   0.18284   102.04163
753   0.07922   0.89465   -0.40825   0.18192   0.07922   0.89465   -0.40825   0.18192   102.10266
754   0.07916   0.89477   -0.40825   0.18152   0.07916   0.89477   -0.40825   0.18152   102.19727
755   0.07923   0.89511   -0.40706   0.18259   0.07923   0.89511   -0.40706   0.18259   102.07825
756   0.07929   0.89468   -0.40779   0.18305   0.07929   0.89468   -0.40779   0.18305   102.05383
757   0.07923   0.89477   -0.40751   0.18311   0.07923   0.89477   -0.40751   0.18311   102.13623
758   0.07915   0.89486   -0.40852   0.18082   0.07915   0.89486   -0.40852   0.18082   102.20642
759   0.07921   0.89459   -0.40837   0.18244   0.07921   0.89459   -0.40837   0.18244   102.04468
760   0.07918   0.89514   -0.40733   0.18183   0.07918   0.89514   -0.40733   0.18183   102.03247
761   0.07913   0.89508   -0.40696   0.18265   0.07913   0.89508   -0.40696   0.18265   102.13928
762   0.07914   0.89514   -0.40706   0.18226   0.07914   0.89514   -0.40706   0.18226   102.15149
763   0.07919   0.89477   -0.40724   0.18387   0.07919   0.89477   -0.40724   0.18387   102.09045
764   0.07921   0.89505   -0.40724   0.18305   0.07921   0.89505   -0.40724   0.18305   102.10266
765   0.07931   0.89492   -0.40742   0.18274   0.07931   0.89492   -0.40742   0.18274   102.11182
766   0.07933   0.89535   -0.40715   0.18162   0.07933   0.89535   -0.40715   0.18162   102.11182
767   0.07926   0.89538   -0.40669   0.18226   0.07926   0.89538   -0.40669   0.18226   102.07825
768   0.07923   0.89550   -0.40660   0.18204   0.07923   0.89550   -0.40660   0.18204   102.09045
769   0.07926   0.89526   -0.40672   0.18284   0.07926   0.89526   -0.40672   0.18284   102.14844
770   0.07928   0.89480   -0.40782   0.18235   0.07928   0.89480   -0.40782   0.18235   102.09961
771   0.07924   0.89480   -0.40782   0.18247   0.07924   0.89480   -0.40782   0.18247   102.10266
772   0.07916   0.89480   -0.40757   0.18247   0.07916   0.89480   -0.40757   0.18247   102.12708
773   0.07913   0.89499   -0.40703   0.18302   0.07913   0.89499   -0.40703   0.18302   102.13928
774   0.07916   0.89502   -0.40724   0.18284   0.07916   0.89502   -0.40724   0.18284   102.08130
775   0.07917   0.89532   -0.40706   0.18186   0.07917   0.89532   -0.40706   0.18186   102.08130
776   0.07913   0.89529   -0.40727   0.18097   0.07913   0.89529   -0.40727   0.18097   102.15149
777   0.07919   0.89520   -0.40678   0.18305   0.07919   0.89520   -0.40678   0.18305   102.10266
778   0.07922   0.89514   -0.40663   0.18363   0.07922   0.89514   -0.40663   0.18363   102.05688
779   0.07919   0.89486   -0.40712   0.18332   0.07919   0.89486   -0.40712   0.18332   102.12708
780   0.07916   0.89554   -0.40620   0.18265   0.07916   0.89554   -0.40620   0.18265   102.17285
781   0.07929   0.89505   -0.40690   0.18290   0.07929   0.89505   -0.40690   0.18290   102.05383
782   0.07930   0.89523   -0.40648   0.18314   0.07930   0.89523   -0.40648   0.18314   102.06604
783   0.07904   0.89514   -0.40739   0.18137   0.07904   0.89514   -0.40739   0.18137   102.15149
784   0.07903   0.89517   -0.40620   0.18406   0.07903   0.89517   -0.40620   0.18406   102.18811
785   0.07936   0.89474   -0.40645   0.18543   0.07936   0.89474   -0.40645   0.18543   102.09961
786   0.07943   0.89496   -0.40635   0.18500   0.07943   0.89496   -0.40635   0.18500   102.07214
787   0.07912   0.89529   -0.40709   0.18183   0.07912   0.89529   -0.40709   0.18183   102.12708
788   0.07905   0.89538   -0.40602   0.18339   0.07905   0.89538   -0.40602   0.18339   102.15149
789   0.07933   0.89535   -0.40559   0.18458   0.07933   0.89535   -0.40559   0.18458   102.05383
790   0.07931   0.89566   -0.40498   0.18482   0.07931   0.89566   -0.40498   0.18482   102.11182
791   0.07918   0.89575   -0.40577   0.18271   0.07918   0.89575   -0.40577   0.18271   102.16064
792   0.07919   0.89575   -0.40516   0.18308   0.07919   0.89575   -0.40516   0.18308   102.11487
793   0.07924   0.89590   -0.40519   0.18293   0.07924   0.89590   -0.40519   0.18293   102.02026
794   0.07926   0.89520   -0.40629   0.18348   0.07926   0.89520   -0.40629   0.18348   102.13623
795   0.07920   0.89547   -0.40605   0.18305   0.07920   0.89547   -0.40605   0.18305   102.16064
796   0.07934   0.89523   -0.40596   0.18464   0.07934   0.89523   -0.40596   0.18464   102.10876
797   0.07926   0.89514   -0.40587   0.18485   0.07926   0.89514   -0.40587   0.18485   102.07825
798   0.07928   0.89538   -0.40641   0.18296   0.07928   0.89538   -0.40641   0.18296   102.12402
799   0.07924   0.89557   -0.40593   0.18329   0.07924   0.89557   -0.40593   0.18329   102.12402
800   0.07932   0.89547   -0.40547   0.18400   0.07932   0.89547   -0.40547   0.18400   102.06604
801   0.07925   0.89523   -0.40648   0.18314   0.07925   0.89523   -0.40648   0.18314   102.12402
802   0.07915   0.89523   -0.40635   0.18354   0.07915   0.89523   -0.40635   0.18354   102.16064
803   0.07923   0.89557   -0.40584   0.18348   0.07923   0.89557   -0.40584   0.18348   102.05383
804   0.07930   0.89538   -0.40590   0.18409   0.07930   0.89538   -0.40590   0.18409   102.07825
805   0.07927   0.89572   -0.40596   0.18216   0.07927   0.89572   -0.40596   0.18216   102.12402
806   0.07922   0.89569   -0.40498   0.18451   0.07922   0.89569   -0.40498   0.18451   102.18201
807   0.07932   0.89541   -0.40571   0.18394   0.07932   0.89541   -0.40571   0.18394   102.06604
808   0.07926   0.89596   -0.40391   0.18500   0.07926   0.89596   -0.40391   0.18500   102.07825
809   0.07929   0.89557   -0.40538   0.18357   0.07929   0.89557   -0.40538   0.18357   102.13623
810   0.07928   0.89627   -0.40352   0.18494   0.07928   0.89627   -0.40352   0.18494   102.09961
811   0.07934   0.89566   -0.40477   0.18433   0.07934   0.89566   -0.40477   0.18433   102.04163
812   0.07929   0.89563   -0.40510   0.18451   0.07929   0.89563   -0.40510   0.18451   102.09961
813   0.07924   0.89560   -0.40507   0.18406   0.07924   0.89560   -0.40507   0.18406   102.20642
814   0.07924   0.89590   -0.40486   0.18354   0.07924   0.89590   -0.40486   0.18354   102.11182
815   0.07922   0.89618   -0.40422   0.18360   0.07922   0.89618   -0.40422   0.18360   102.02026
816   0.07917   0.89648   -0.40403   0.18278   0.07917   0.89648   -0.40403   0.18278   102.10266
817   0.07913   0.89578   -0.40526   0.18342   0.07913   0.89578   -0.40526   0.18342   102.17285
818   0.07923   0.89554   -0.40547   0.18403   0.07923   0.89554   -0.40547   0.18403   102.06604
819   0.07927   0.89593   -0.40510   0.18287   0.07927   0.89593   -0.40510   0.18287   102.03247
820   0.07922   0.89642   -0.40425   0.18241   0.07922   0.89642   -0.40425   0.18241   102.09045
821   0.07917   0.89599   -0.40394   0.18458   0.07917   0.89599   -0.40394   0.18458   102.16064
822   0.07928   0.89624   -0.40397   0.18433   0.07928   0.89624   -0.40397   0.18433   102.05383
823   0.07930   0.89612   -0.40336   0.18571   0.07930   0.89612   -0.40336   0.18571   102.05383
824   0.07926   0.89612   -0.40461   0.18305   0.07926   0.89612   -0.40461   0.18305   102.13623
825   0.07922   0.89621   -0.40364   0.18494   0.07922   0.89621   -0.40364   0.18494   102.10266
826   0.07931   0.89621   -0.40407   0.18375   0.07931   0.89621   -0.40407   0.18375   102.02942
827   0.07927   0.89645   -0.40339   0.18415   0.07927   0.89645   -0.40339   0.18415   102.09045
828   0.07918   0.89608   -0.40471   0.18320   0.07918   0.89608   -0.40471   0.18320   102.14844
829   0.07911   0.89660   -0.40306   0.18451   0.07911   0.89660   -0.40306   0.18451   102.10571
830   0.07927   0.89673   -0.40303   0.18342   0.07927   0.89673   -0.40303   0.18342   102.03247
831   0.07924   0.89679   -0.40257   0.18439   0.07924   0.89679   -0.40257   0.18439   102.05383
832   0.07921   0.89669   -0.40251   0.18445   0.07921   0.89669   -0.40251   0.18445   102.10266
833   0.07922   0.89654   -0.40324   0.18357   0.07922   0.89654   -0.40324   0.18357   102.09045
834   0.07927   0.89654   -0.40333   0.18351   0.07927   0.89654   -0.40333   0.18351   102.09045
835   0.07925   0.89691   -0.40239   0.18397   0.07925   0.89691   -0.40239   0.18397   102.09045
836   0.07925   0.89624   -0.40345   0.18522   0.07925   0.89624   -0.40345   0.18522   102.07825
837   0.07929   0.89612   -0.40373   0.18482   0.07929   0.89612   -0.40373   0.18482   102.07825
838   0.07930   0.89630   -0.40318   0.18476   0.07930   0.89630   -0.40318   0.18476   102.08740
839   0.07925   0.89660   -0.40355   0.18342   0.07925   0.89660   -0.40355   0.18342   102.13623
840   0.07928   0.89633   -0.40370   0.18403   0.07928   0.89633   -0.40370   0.18403   102.07825
841   0.07927   0.89605   -0.40388   0.18497   0.07927   0.89605   -0.40388   0.18497   102.03247
842   0.07918   0.89663   -0.40330   0.18326   0.07918   0.89663   -0.40330   0.18326   102.10266
843   0.07909   0.89657   -0.40361   0.18293   0.07909   0.89657   -0.40361   0.18293   102.17590
844   0.07922   0.89621   -0.40284   0.18619   0.07922   0.89621   -0.40284   0.18619   102.04468
845   0.07924   0.89621   -0.40355   0.18476   0.07924   0.89621   -0.40355   0.18476   102.05383
846   0.07918   0.89624   -0.40422   0.18320   0.07918   0.89624   -0.40422   0.18320   102.16064
847   0.07917   0.89633   -0.40303   0.18549   0.07917   0.89633   -0.40303   0.18549   102.13928
848   0.07928   0.89590   -0.40370   0.18567   0.07928   0.89590   -0.40370   0.18567   102.03247
849   0.07929   0.89608   -0.40361   0.18494   0.07929   0.89608   -0.40361   0.18494   102.07825
850   0.07921   0.89608   -0.40394   0.18458   0.07921   0.89608   -0.40394   0.18458   102.13623
851   0.07922   0.89612   -0.40410   0.18458   0.07922   0.89612   -0.40410   0.18458   102.11487
852   0.07932   0.89581   -0.40403   0.18592   0.07932   0.89581   -0.40403   0.18592   102.02942
853   0.07931   0.89599   -0.40403   0.18497   0.07931   0.89599   -0.40403   0.18497   102.05383
854   0.07921   0.89654   -0.40297   0.18494   0.07921   0.89654   -0.40297   0.18494   102.11487
855   0.07924   0.89682   -0.40217   0.18479   0.07924   0.89682   -0.40217   0.18479   102.07825
856   0.07926   0.89679   -0.40260   0.18458   0.07926   0.89679   -0.40260   0.18458   101.99585
857   0.07919   0.89642   -0.40306   0.18451   0.07919   0.89642   -0.40306   0.18451   102.07825
858   0.07914   0.89596   -0.40419   0.18427   0.07914   0.89596   -0.40419   0.18427   102.16064
859   0.07922   0.89688   -0.40193   0.18537   0.07922   0.89688   -0.40193   0.18537   102.04468
860   0.07929   0.89669   -0.40266   0.18451   0.07929   0.89669   -0.40266   0.18451   102.00806
861   0.07924   0.89697   -0.40199   0.18479   0.07924   0.89697   -0.40199   0.18479   102.07825
862   0.07922   0.89654   -0.40254   0.18580   0.07922   0.89654   -0.40254   0.18580   102.12402
863   0.07929   0.89642   -0.40306   0.18509   0.07929   0.89642   -0.40306   0.18509   102.06604
864   0.07920   0.89624   -0.40397   0.18387   0.07920   0.89624   -0.40397   0.18387   102.04468
865   0.07904   0.89639   -0.40358   0.18363   0.07904   0.89639   -0.40358   0.18363   102.13013
866   0.07923   0.89654   -0.40281   0.18534   0.07923   0.89654   -0.40281   0.18534   102.06604
867   0.07940   0.89608   -0.40382   0.18491   0.07940   0.89608   -0.40382   0.18491   102.05078
868   0.07926   0.89593   -0.40434   0.18436   0.07926   0.89593   -0.40434   0.18436   102.06604
869   0.07913   0.89621   -0.40327   0.18537   0.07913   0.89621   -0.40327   0.18537   102.09351
870   0.07917   0.89645   -0.40248   0.18580   0.07917   0.89645   -0.40248   0.18580   102.05688
871   0.07922   0.89673   -0.40260   0.18448   0.07922   0.89673   -0.40260   0.18448   102.10266
872   0.07922   0.89636   -0.40275   0.18561   0.07922   0.89636   -0.40275   0.18561   102.14844
873   0.07921   0.89685   -0.40193   0.18552   0.07921   0.89685   -0.40193   0.18552   102.11487
874   0.07924   0.89633   -0.40309   0.18522   0.07924   0.89633   -0.40309   0.18522   102.03247
875   0.07926   0.89642   -0.40339   0.18430   0.07926   0.89642   -0.40339   0.18430   102.09961
876   0.07922   0.89639   -0.40287   0.18549   0.07922   0.89639   -0.40287   0.18549   102.13623
877   0.07927   0.89627   -0.40306   0.18561   0.07927   0.89627   -0.40306   0.18561   102.07825
878   0.07933   0.89685   -0.40178   0.18534   0.07933   0.89685   -0.40178   0.18534   101.98364
879   0.07925   0.89676   -0.40287   0.18394   0.07925   0.89676   -0.40287   0.18394   102.11182
880   0.07923   0.89660   -0.40278   0.18500   0.07923   0.89660   -0.40278   0.18500   102.16980
881   0.07931   0.89669   -0.40178   0.18601   0.07931   0.89669   -0.40178   0.18601   102.00806
882   0.07930   0.89615   -0.40376   0.18442   0.07930   0.89615   -0.40376   0.18442   102.02942
883   0.07925   0.89663   -0.40263   0.18491   0.07925   0.89663   -0.40263   0.18491   102.13623
884   0.07919   0.89624   -0.40339   0.18549   0.07919   0.89624   -0.40339   0.18549   102.17285
885   0.07929   0.89566   -0.40446   0.18516   0.07929   0.89566   -0.40446   0.18516   102.02942
886   0.07910   0.89621   -0.40306   0.18610   0.07910   0.89621   -0.40306   0.18610   102.01111
887   0.07922   0.89627   -0.40263   0.18641   0.07922   0.89627   -0.40263   0.18641   102.16064
888   0.07927   0.89633   -0.40309   0.18513   0.07927   0.89633   -0.40309   0.18513   102.12402
889   0.07938   0.89660   -0.40254   0.18509   0.07938   0.89660   -0.40254   0.18509   102.07520
890   0.07932   0.89676   -0.40196   0.18567   0.07932   0.89676   -0.40196   0.18567   102.04163
891   0.07917   0.89618   -0.40388   0.18476   0.07917   0.89618   -0.40388   0.18476   102.13928
892   0.07932   0.89676   -0.40181   0.18580   0.07932   0.89676   -0.40181   0.18580   102.04163
893   0.07938   0.89666   -0.40245   0.18482   0.07938   0.89666   -0.40245   0.18482   101.99280
894   0.07931   0.89660   -0.40281   0.18467   0.07931   0.89660   -0.40281   0.18467   102.09961
895   0.07924   0.89627   -0.40321   0.18509   0.07924   0.89627   -0.40321   0.18509   102.12402
896   0.07926   0.89718   -0.40123   0.18567   0.07926   0.89718   -0.40123   0.18567   102.03247
897   0.07927   0.89697   -0.40202   0.18427   0.07927   0.89697   -0.40202   0.18427   102.05383
898   0.07918   0.89682   -0.40205   0.18534   0.07918   0.89682   -0.40205   0.18534   102.06909
899   0.07924   0.89657   -0.40257   0.18513   0.07924   0.89657   -0.40257   0.18513   102.10266
900   0.07937   0.89645   -0.40260   0.18571   0.07937   0.89645   -0.40260   0.18571   102.00500
901   0.07926   0.89657   -0.40306   0.18476   0.07926   0.89657   -0.40306   0.18476   102.07825
902   0.07899   0.89660   -0.40327   0.18363   0.07899   0.89660   -0.40327   0.18363   102.08435
903   0.07923   0.89657   -0.40153   0.18741   0.07923   0.89657   -0.40153   0.18741   102.03247
904   0.07944   0.89651   -0.40187   0.18696   0.07944   0.89651   -0.40187   0.18696   102.02637
905   0.07922   0.89593   -0.40413   0.18476   0.07922   0.89593   -0.40413   0.18476   102.13623
906   0.07913   0.89657   -0.40309   0.18421   0.07913   0.89657   -0.40309   0.18421   102.10571
907   0.07929   0.89648   -0.40272   0.18491   0.07929   0.89648   -0.40272   0.18491   102.02942
908   0.07932   0.89651   -0.40275   0.18513   0.07932   0.89651   -0.40275   0.18513   102.07520
909   0.07915   0.89645   -0.40349   0.18412   0.07915   0.89645   -0.40349   0.18412   102.13928
910   0.07913   0.89639   -0.40287   0.18567   0.07913   0.89639   -0.40287   0.18567   102.09351
911   0.07922   0.89602   -0.40349   0.18580   0.07922   0.89602   -0.40349   0.18580   101.99890
912   0.07914   0.89593   -0.40407   0.18488   0.07914   0.89593   -0.40407   0.18488   102.12708
913   0.07911   0.89608   -0.40370   0.18485   0.07911   0.89608   -0.40370   0.18485   102.18506
914   0.07916   0.89636   -0.40257   0.18601   0.07916   0.89636   -0.40257   0.18601   102.06909
915   0.07925   0.89657   -0.40248   0.18558   0.07925   0.89657   -0.40248   0.18558   102.00806
916   0.07920   0.89663   -0.40257   0.18503   0.07920   0.89663   -0.40257   0.18503   102.10266
917   0.07925   0.89651   -0.40190   0.18726   0.07925   0.89651   -0.40190   0.18726   102.18201
918   0.07929   0.89615   -0.40345   0.18583   0.07929   0.89615   -0.40345   0.18583   102.07825
919   0.07931   0.89618   -0.40315   0.18561   0.07931   0.89618   -0.40315   0.18561   102.04163
920   0.07924   0.89666   -0.40266   0.18467   0.07924   0.89666   -0.40266   0.18467   102.11182
921   0.07919   0.89630   -0.40284   0.18610   0.07919   0.89630   -0.40284   0.18610   102.13623
922   0.07929   0.89633   -0.40294   0.18567   0.07929   0.89633   -0.40294   0.18567   102.08740
923   0.07931   0.89673   -0.40266   0.18424   0.07931   0.89673   -0.40266   0.18424   101.98364
924   0.07920   0.89648   -0.40287   0.18519   0.07920   0.89648   -0.40287   0.18519   102.10266
925   0.07913   0.89694   -0.40144   0.18598   0.07913   0.89694   -0.40144   0.18598   102.08130
926   0.07923   0.89660   -0.40260   0.18500   0.07923   0.89660   -0.40260   0.18500   102.03247
927   0.07922   0.89651   -0.40236   0.18607   0.07922   0.89651   -0.40236   0.18607   102.02026
928   0.07919   0.89618   -0.40278   0.18677   0.07919   0.89618   -0.40278   0.18677   102.13623
929   0.07929   0.89636   -0.40202   0.18760   0.07929   0.89636   -0.40202   0.18760   102.04163
930   0.07933   0.89654   -0.40165   0.18754   0.07933   0.89654   -0.40165   0.18754   101.99585
931   0.07930   0.89636   -0.40214   0.18717   0.07930   0.89636   -0.40214   0.18717   102.07825
932   0.07928   0.89630   -0.40272   0.18619   0.07928   0.89630   -0.40272   0.18619   102.14539
933   0.07932   0.89630   -0.40345   0.18464   0.07932   0.89630   -0.40345   0.18464   102.11182
934   0.07929   0.89593   -0.40425   0.18488   0.07929   0.89593   -0.40425   0.18488   102.07825
935   0.07924   0.89608   -0.40413   0.18464   0.07924   0.89608   -0.40413   0.18464   102.10266
936   0.07924   0.89621   -0.40382   0.18485   0.07924   0.89621   -0.40382   0.18485   102.09045
937   0.07929   0.89596   -0.40413   0.18485   0.07929   0.89596   -0.40413   0.18485   102.02942
938   0.07916   0.89682   -0.40229   0.18485   0.07916   0.89682   -0.40229   0.18485   102.05688
939   0.07910   0.89590   -0.40413   0.18470   0.07910   0.89590   -0.40413   0.18470   102.16370
940   0.07921   0.89535   -0.40532   0.18561   0.07921   0.89535   -0.40532   0.18561   102.06909
941   0.07918   0.89575   -0.40428   0.18552   0.07918   0.89575   -0.40428   0.18552   102.04468
942   0.07922   0.89563   -0.40403   0.18644   0.07922   0.89563   -0.40403   0.18644   102.13623
943   0.07916   0.89602   -0.40385   0.18494   0.07916   0.89602   -0.40385   0.18494   102.17285
944   0.07925   0.89554   -0.40477   0.18534   0.07925   0.89554   -0.40477   0.18534   102.04468
945   0.07927   0.89560   -0.40486   0.18482   0.07927   0.89560   -0.40486   0.18482   102.04163
946   0.07917   0.89648   -0.40303   0.18516   0.07917   0.89648   -0.40303   0.18516   102.11487
947   0.07917   0.89584   -0.40403   0.18546   0.07917   0.89584   -0.40403   0.18546   102.17285
948   0.07931   0.89569   -0.40449   0.18571   0.07931   0.89569   -0.40449   0.18571   102.05383
949   0.07929   0.89593   -0.40425   0.18488   0.07929   0.89593   -0.40425   0.18488   102.07825
950   0.07918   0.89630   -0.40358   0.18473   0.07918   0.89630   -0.40358   0.18473   102.16064
951   0.07921   0.89630   -0.40339   0.18519   0.07921   0.89630   -0.40339   0.18519   102.10266
952   0.07923   0.89599   -0.40400   0.18522   0.07923   0.89599   -0.40400   0.18522   101.99890
953   0.07914   0.89584   -0.40428   0.18516   0.07914   0.89584   -0.40428   0.18516   102.03552
954   0.07915   0.89605   -0.40349   0.18567   0.07915   0.89605   -0.40349   0.18567   102.17285
955   0.07921   0.89569   -0.40483   0.18482   0.07921   0.89569   -0.40483   0.18482   102.05688
956   0.07923   0.89547   -0.40486   0.18598   0.07923   0.89547   -0.40486   0.18598   102.02026
957   0.07920   0.89575   -0.40437   0.18497   0.07920   0.89575   -0.40437   0.18497   102.11487
958   0.07919   0.89532   -0.40526   0.18528   0.07919   0.89532   -0.40526   0.18528   102.17285
959   0.07923   0.89566   -0.40431   0.18571   0.07923   0.89566   -0.40431   0.18571   102.05383
960   0.07928   0.89584   -0.40428   0.18494   0.07928   0.89584   -0.40428   0.18494   102.03247
961   0.07924   0.89584   -0.40422   0.18537   0.07924   0.89584   -0.40422   0.18537   102.09045
962   0.07923   0.89572   -0.40434   0.18583   0.07923   0.89572   -0.40434   0.18583   102.07825
963   0.07929   0.89575   -0.40397   0.18577   0.07929   0.89575   -0.40397   0.18577   102.05383
964   0.07924   0.89608   -0.40345   0.18613   0.07924   0.89608   -0.40345   0.18613   102.06604
965   0.07925   0.89550   -0.40434   0.18659   0.07925   0.89550   -0.40434   0.18659   102.09961
966   0.07922   0.89557   -0.40471   0.18561   0.07922   0.89557   -0.40471   0.18561   102.09045
967   0.07919   0.89572   -0.40446   0.18513   0.07919   0.89572   -0.40446   0.18513   102.06909
968   0.07918   0.89590   -0.40480   0.18387   0.07918   0.89590   -0.40480   0.18387   102.08130
969   0.07915   0.89538   -0.40498   0.18534   0.07915   0.89538   -0.40498   0.18534   102.11487
970   0.07923   0.89566   -0.40449   0.18592   0.07923   0.89566   -0.40449   0.18592   102.02026
971   0.07919   0.89496   -0.40629   0.18509   0.07919   0.89496   -0.40629   0.18509   102.09045
972   0.07919   0.89544   -0.40574   0.18342   0.07919   0.89544   -0.40574   0.18342   102.16064
973   0.07921   0.89584   -0.40449   0.18427   0.07921   0.89584   -0.40449   0.18427   102.07825
974   0.07926   0.89554   -0.40458   0.18577   0.07926   0.89554   -0.40458   0.18577   102.04163
975   0.07924   0.89538   -0.40562   0.18406   0.07924   0.89538   -0.40562   0.18406   102.10266
976   0.07919   0.89538   -0.40559   0.18467   0.07919   0.89538   -0.40559   0.18467   102.14844
977   0.07928   0.89492   -0.40623   0.18488   0.07928   0.89492   -0.40623   0.18488   102.08740
978   0.07925   0.89526   -0.40501   0.18644   0.07925   0.89526   -0.40501   0.18644   102.04468
979   0.07915   0.89554   -0.40519   0.18455   0.07915   0.89554   -0.40519   0.18455   102.11487
980   0.07904   0.89557   -0.40468   0.18552   0.07904   0.89557   -0.40468   0.18552   102.15149
981   0.07918   0.89578   -0.40431   0.18543   0.07918   0.89578   -0.40431   0.18543   102.01111
982   0.07920   0.89517   -0.40611   0.18409   0.07920   0.89517   -0.40611   0.18409   102.07825
983   0.07897   0.89508   -0.40602   0.18479   0.07897   0.89508   -0.40602   0.18479   102.17896
984   0.07896   0.89511   -0.40559   0.18625   0.07896   0.89511   -0.40559   0.18625   102.14233
985   0.07932   0.89532   -0.40471   0.18625   0.07932   0.89532   -0.40471   0.18625   102.06604
986   0.07933   0.89569   -0.40504   0.18442   0.07933   0.89569   -0.40504   0.18442   102.04163
987   0.07916   0.89566   -0.40468   0.18549   0.07916   0.89566   -0.40468   0.18549   102.10266
988   0.07911   0.89508   -0.40620   0.18458   0.07911   0.89508   -0.40620   0.18458   102.15149
989   0.07932   0.89511   -0.40507   0.18683   0.07932   0.89511   -0.40507   0.18683   102.05383
990   0.07934   0.89544   -0.40446   0.18708   0.07934   0.89544   -0.40446   0.18708   102.07520
991   0.07929   0.89508   -0.40590   0.18519   0.07929   0.89508   -0.40590   0.18519   102.19116
992   0.07929   0.89544   -0.40513   0.18574   0.07929   0.89544   -0.40513   0.18574   102.04163
993   0.07921   0.89593   -0.40446   0.18467   0.07921   0.89593   -0.40446   0.18467   101.99890
994   0.07912   0.89560   -0.40538   0.18427   0.07912   0.89560   -0.40538   0.18427   102.08130
995   0.07916   0.89529   -0.40599   0.18384   0.07916   0.89529   -0.40599   0.18384   102.13928
996   0.07918   0.89541   -0.40553   0.18488   0.07918   0.89541   -0.40553   0.18488   102.04468
997   0.07919   0.89560   -0.40532   0.18442   0.07919   0.89560   -0.40532   0.18442   102.04468
998   0.07916   0.89593   -0.40474   0.18378   0.07916   0.89593   -0.40474   0.18378   102.12708
999   0.07920   0.89547   -0.40519   0.18516   0.07920   0.89547   -0.40519   0.18516   102.10266
1000   0.07933   0.89511   -0.40614   0.18461   0.07933   0.89511   -0.40614   0.18461   102.08740
1001   0.07930   0.89550   -0.40538   0.18445   0.07930   0.89550   -0.40538   0.18445   102.12402
1002   0.07925   0.89544   -0.40587   0.18357   0.07925   0.89544   -0.40587   0.18357   102.12402
1003   0.07928   0.89492   -0.40641   0.18476   0.07928   0.89492   -0.40641   0.18476   102.07825
1004   0.07933   0.89514   -0.40611   0.18470   0.07933   0.89514   -0.40611   0.18470   102.06299
1005   0.07930   0.89520   -0.40568   0.18476   0.07930   0.89520   -0.40568   0.18476   102.12402
1006   0.07922   0.89517   -0.40596   0.18424   0.07922   0.89517   -0.40596   0.18424   102.17285
1007   0.07922   0.89560   -0.40480   0.18506   0.07922   0.89560   -0.40480   0.18506   101.99890
1008   0.07920   0.89529   -0.40596   0.18445   0.07920   0.89529   -0.40596   0.18445   102.06909
1009   0.07919   0.89526   -0.40611   0.18403   0.07919   0.89526   -0.40611   0.18403   102.14844
1010   0.07915   0.89532   -0.40590   0.18421   0.07915   0.89532   -0.40590   0.18421   102.15149
1011   0.07923   0.89584   -0.40477   0.18372   0.07923   0.89584   -0.40477   0.18372   102.02026
1012   0.07922   0.89547   -0.40550   0.18455   0.07922   0.89547   -0.40550   0.18455   102.10266
1013   0.07916   0.89581   -0.40440   0.18509   0.07916   0.89581   -0.40440   0.18509   102.18506
1014   0.07921   0.89544   -0.40501   0.18561   0.07921   0.89544   -0.40501   0.18561   102.11487
1015   0.07927   0.89544   -0.40526   0.18461   0.07927   0.89544   -0.40526   0.18461   102.04163
1016   0.07930   0.89557   -0.40492   0.18503   0.07930   0.89557   -0.40492   0.18503   102.12402
1017   0.07927   0.89520   -0.40599   0.18458   0.07927   0.89520   -0.40599   0.18458   102.18201
1018   0.07934   0.89560   -0.40452   0.18558   0.07934   0.89560   -0.40452   0.18558   102.08740
1019   0.07934   0.89532   -0.40461   0.18662   0.07934   0.89532   -0.40461   0.18662   102.07520
1020   0.07919   0.89541   -0.40587   0.18403   0.07919   0.89541   -0.40587   0.18403   102.06909
1021   0.07912   0.89535   -0.40611   0.18339   0.07912   0.89535   -0.40611   0.18339   102.15149
1022   0.07916   0.89529   -0.40562   0.18476   0.07916   0.89529   -0.40562   0.18476   102.09045
1023   0.07922   0.89541   -0.40584   0.18363   0.07922   0.89541   -0.40584   0.18363   102.06604
1024   0.07913   0.89547   -0.40584   0.18299   0.07913   0.89547   -0.40584   0.18299   102.13928
1025   0.07915   0.89544   -0.40562   0.18369   0.07915   0.89544   -0.40562   0.18369   102.16064
1026   0.07930   0.89511   -0.40547   0.18558   0.07930   0.89511   -0.40547   0.18558   102.09961
1027   0.07932   0.89547   -0.40522   0.18485   0.07932   0.89547   -0.40522   0.18485   102.08740
1028   0.07927   0.89535   -0.40553   0.18476   0.07927   0.89535   -0.40553   0.18476   102.15759
1029   0.07925   0.89523   -0.40681   0.18287   0.07925   0.89523   -0.40681   0.18287   102.11182
1030   0.07928   0.89554   -0.40577   0.18345   0.07928   0.89554   -0.40577   0.18345   102.07825
1031   0.07924   0.89541   -0.40666   0.18244   0.07924   0.89541   -0.40666   0.18244   102.07825
1032   0.07928   0.89459   -0.40666   0.18580   0.07928   0.89459   -0.40666   0.18580   102.13623
1033   0.07926   0.89508   -0.40608   0.18519   0.07926   0.89508   -0.40608   0.18519   102.06604
1034   0.07920   0.89541   -0.40617   0.18320   0.07920   0.89541   -0.40617   0.18320   102.09045
1035   0.07909   0.89550   -0.40532   0.18433   0.07909   0.89550   -0.40532   0.18433   102.11792
1036   0.07917   0.89563   -0.40565   0.18332   0.07917   0.89563   -0.40565   0.18332   102.06909
1037   0.07922   0.89532   -0.40596   0.18378   0.07922   0.89532   -0.40596   0.18378   102.05688
1038   0.07918   0.89529   -0.40672   0.18220   0.07918   0.89529   -0.40672   0.18220   102.09045
1039   0.07910   0.89520   -0.40684   0.18274   0.07910   0.89520   -0.40684   0.18274   102.16370
1040   0.07922   0.89526   -0.40614   0.18406   0.07922   0.89526   -0.40614   0.18406   102.06604
1041   0.07924   0.89496   -0.40669   0.18415   0.07924   0.89496   -0.40669   0.18415   102.04468
1042   0.07915   0.89590   -0.40516   0.18284   0.07915   0.89590   -0.40516   0.18284   102.12708
1043   0.07918   0.89587   -0.40498   0.18348   0.07918   0.89587   -0.40498   0.18348   102.11487
1044   0.07926   0.89480   -0.40696   0.18378   0.07926   0.89480   -0.40696   0.18378   102.07825
1045   0.07926   0.89505   -0.40635   0.18439   0.07926   0.89505   -0.40635   0.18439   102.05383
1046   0.07922   0.89496   -0.40733   0.18259   0.07922   0.89496   -0.40733   0.18259   102.14844
1047   0.07915   0.89538   -0.40580   0.18427   0.07915   0.89538   -0.40580   0.18427   102.15149
1048   0.07923   0.89538   -0.40599   0.18381   0.07923   0.89538   -0.40599   0.18381   102.06604
1049   0.07920   0.89489   -0.40672   0.18430   0.07920   0.89489   -0.40672   0.18430   102.09045
1050   0.07920   0.89517   -0.40544   0.18558   0.07920   0.89517   -0.40544   0.18558   102.16064
1051   0.07920   0.89505   -0.40577   0.18567   0.07920   0.89505   -0.40577   0.18567   102.13623
1052   0.07924   0.89529   -0.40651   0.18296   0.07924   0.89529   -0.40651   0.18296   102.04468
1053   0.07923   0.89544   -0.40584   0.18342   0.07923   0.89544   -0.40584   0.18342   102.04468
1054   0.07915   0.89532   -0.40593   0.18360   0.07915   0.89532   -0.40593   0.18360   102.17285
1055   0.07922   0.89502   -0.40657   0.18387   0.07922   0.89502   -0.40657   0.18387   102.10266
1056   0.07926   0.89505   -0.40669   0.18397   0.07926   0.89505   -0.40669   0.18397   102.04163
1057   0.07927   0.89468   -0.40806   0.18278   0.07927   0.89468   -0.40806   0.18278   102.12402
1058   0.07920   0.89532   -0.40727   0.18152   0.07920   0.89532   -0.40727   0.18152   102.16064
1059   0.07928   0.89486   -0.40718   0.18336   0.07928   0.89486   -0.40718   0.18336   102.11182
1060   0.07925   0.89492   -0.40715   0.18336   0.07925   0.89492   -0.40715   0.18336   102.07825
1061   0.07921   0.89483   -0.40785   0.18223   0.07921   0.89483   -0.40785   0.18223   102.11487
1062   0.07914   0.89462   -0.40754   0.18354   0.07914   0.89462   -0.40754   0.18354   102.17285
1063   0.07916   0.89538   -0.40632   0.18278   0.07916   0.89538   -0.40632   0.18278   102.06909
1064   0.07915   0.89499   -0.40672   0.18400   0.07915   0.89499   -0.40672   0.18400   102.08130
1065   0.07906   0.89520   -0.40657   0.18366   0.07906   0.89520   -0.40657   0.18366   102.10571
1066   0.07924   0.89453   -0.40730   0.18522   0.07924   0.89453   -0.40730   0.18522   102.12402
1067   0.07933   0.89517   -0.40565   0.18531   0.07933   0.89517   -0.40565   0.18531   102.11182
1068   0.07931   0.89477   -0.40645   0.18540   0.07931   0.89477   -0.40645   0.18540   102.12402
1069   0.07922   0.89505   -0.40669   0.18317   0.07922   0.89505   -0.40669   0.18317   102.16064
1070   0.07930   0.89492   -0.40623   0.18503   0.07930   0.89492   -0.40623   0.18503   102.06604
1071   0.07933   0.89535   -0.40596   0.18354   0.07933   0.89535   -0.40596   0.18354   102.07520
1072   0.07930   0.89514   -0.40645   0.18363   0.07930   0.89514   -0.40645   0.18363   102.15759
1073   0.07930   0.89502   -0.40663   0.18418   0.07930   0.89502   -0.40663   0.18418   102.06604
1074   0.07932   0.89453   -0.40791   0.18345   0.07932   0.89453   -0.40791   0.18345   102.05383
1075   0.07926   0.89496   -0.40696   0.18326   0.07926   0.89496   -0.40696   0.18326   102.09045
1076   0.07914   0.89492   -0.40764   0.18198   0.07914   0.89492   -0.40764   0.18198   102.15149
1077   0.07918   0.89486   -0.40730   0.18299   0.07918   0.89486   -0.40730   0.18299   102.11487
1078   0.07923   0.89462   -0.40776   0.18314   0.07923   0.89462   -0.40776   0.18314   102.04468
1079   0.07917   0.89566   -0.40547   0.18345   0.07917   0.89566   -0.40547   0.18345   102.08130
1080   0.07912   0.89450   -0.40782   0.18363   0.07912   0.89450   -0.40782   0.18363   102.19727
1081   0.07922   0.89496   -0.40703   0.18348   0.07922   0.89496   -0.40703   0.18348   102.06604
1082   0.07927   0.89477   -0.40712   0.18436   0.07927   0.89477   -0.40712   0.18436   102.06604
1083   0.07934   0.89480   -0.40690   0.18439   0.07934   0.89480   -0.40690   0.18439   102.14539
1084   0.07933   0.89483   -0.40754   0.18320   0.07933   0.89483   -0.40754   0.18320   102.17896
1085   0.07928   0.89465   -0.40757   0.18415   0.07928   0.89465   -0.40757   0.18415   102.06604
1086   0.07917   0.89477   -0.40696   0.18409   0.07917   0.89477   -0.40696   0.18409   102.05688
1087   0.07926   0.89523   -0.40648   0.18314   0.07926   0.89523   -0.40648   0.18314   102.11182
1088   0.07926   0.89526   -0.40580   0.18430   0.07926   0.89526   -0.40580   0.18430   102.16980
1089   0.07930   0.89511   -0.40641   0.18433   0.07930   0.89511   -0.40641   0.18433   102.05383
1090   0.07920   0.89514   -0.40675   0.18271   0.07920   0.89514   -0.40675   0.18271   102.05688
1091   0.07910   0.89523   -0.40706   0.18192   0.07910   0.89523   -0.40706   0.18192   102.11792
1092   0.07913   0.89499   -0.40696   0.18360   0.07913   0.89499   -0.40696   0.18360   102.15149
1093   0.07926   0.89496   -0.40696   0.18363   0.07926   0.89496   -0.40696   0.18363   102.07825
1094   0.07925   0.89486   -0.40739   0.18351   0.07925   0.89486   -0.40739   0.18351   102.09045
1095   0.07914   0.89474   -0.40745   0.18351   0.07914   0.89474   -0.40745   0.18351   102.15149
1096   0.07927   0.89450   -0.40721   0.18488   0.07927   0.89450   -0.40721   0.18488   102.11182
1097   0.07933   0.89505   -0.40608   0.18509   0.07933   0.89505   -0.40608   0.18509   102.04163
1098   0.07931   0.89499   -0.40706   0.18311   0.07931   0.89499   -0.40706   0.18311   102.08740
1099   0.07924   0.89489   -0.40696   0.18357   0.07924   0.89489   -0.40696   0.18357   102.15759
1100   0.07942   0.89502   -0.40666   0.18351   0.07942   0.89502   -0.40666   0.18351   102.10876
1101   0.07933   0.89505   -0.40657   0.18390   0.07933   0.89505   -0.40657   0.18390   102.08740
1102   0.07900   0.89465   -0.40852   0.18189   0.07900   0.89465   -0.40852   0.18189   102.09656
1103   0.07914   0.89477   -0.40718   0.18415   0.07914   0.89477   -0.40718   0.18415   102.16064
1104   0.07934   0.89483   -0.40638   0.18549   0.07934   0.89483   -0.40638   0.18549   102.07520
1105   0.07920   0.89499   -0.40718   0.18305   0.07920   0.89499   -0.40718   0.18305   102.10266
1106   0.07900   0.89554   -0.40611   0.18247   0.07900   0.89554   -0.40611   0.18247   102.13013
1107   0.07920   0.89508   -0.40690   0.18299   0.07920   0.89508   -0.40690   0.18299   102.07825
1108   0.07929   0.89477   -0.40712   0.18436   0.07929   0.89477   -0.40712   0.18436   102.04163
1109   0.07919   0.89492   -0.40779   0.18204   0.07919   0.89492   -0.40779   0.18204   102.10266
1110   0.07920   0.89517   -0.40727   0.18180   0.07920   0.89517   -0.40727   0.18180   102.16064
1111   0.07935   0.89468   -0.40730   0.18415   0.07935   0.89468   -0.40730   0.18415   102.08740
1112   0.07940   0.89450   -0.40709   0.18482   0.07940   0.89450   -0.40709   0.18482   102.07520
1113   0.07922   0.89486   -0.40809   0.18162   0.07922   0.89486   -0.40809   0.18162   102.16980
1114   0.07923   0.89447   -0.40864   0.18220   0.07923   0.89447   -0.40864   0.18220   102.16980
1115   0.07931   0.89526   -0.40620   0.18424   0.07931   0.89526   -0.40620   0.18424   102.06604
1116   0.07927   0.89499   -0.40727   0.18250   0.07927   0.89499   -0.40727   0.18250   102.09961
1117   0.07915   0.89474   -0.40837   0.18082   0.07915   0.89474   -0.40837   0.18082   102.18506
1118   0.07912   0.89541   -0.40605   0.18293   0.07912   0.89541   -0.40605   0.18293   102.16370
1119   0.07930   0.89505   -0.40632   0.18421   0.07930   0.89505   -0.40632   0.18421   102.04163
1120   0.07921   0.89474   -0.40761   0.18329   0.07921   0.89474   -0.40761   0.18329   102.07825
1121   0.07915   0.89505   -0.40724   0.18290   0.07915   0.89505   -0.40724   0.18290   102.17285
1122   0.07921   0.89544   -0.40611   0.18290   0.07921   0.89544   -0.40611   0.18290   102.13623
1123   0.07933   0.89492   -0.40641   0.18464   0.07933   0.89492   -0.40641   0.18464   102.01721
1124   0.07924   0.89499   -0.40706   0.18314   0.07924   0.89499   -0.40706   0.18314   102.13623
1125   0.07920   0.89514   -0.40678   0.18274   0.07920   0.89514   -0.40678   0.18274   102.16064
1126   0.07929   0.89483   -0.40687   0.18372   0.07929   0.89483   -0.40687   0.18372   102.08740
1127   0.07935   0.89459   -0.40666   0.18567   0.07935   0.89459   -0.40666   0.18567   102.08740
1128   0.07927   0.89538   -0.40620   0.18348   0.07927   0.89538   -0.40620   0.18348   102.13623
1129   0.07923   0.89535   -0.40629   0.18369   0.07923   0.89535   -0.40629   0.18369   102.13623
1130   0.07922   0.89520   -0.40602   0.18418   0.07922   0.89520   -0.40602   0.18418   102.09045
1131   0.07918   0.89550   -0.40617   0.18284   0.07918   0.89550   -0.40617   0.18284   102.05688
1132   0.07920   0.89529   -0.40629   0.18287   0.07920   0.89529   -0.40629   0.18287   102.12708
1133   0.07921   0.89511   -0.40645   0.18397   0.07921   0.89511   -0.40645   0.18397   102.10266
1134   0.07921   0.89465   -0.40773   0.18302   0.07921   0.89465   -0.40773   0.18302   102.10266
1135   0.07924   0.89486   -0.40724   0.18357   0.07924   0.89486   -0.40724   0.18357   102.09045
1136   0.07923   0.89486   -0.40736   0.18278   0.07923   0.89486   -0.40736   0.18278   102.16064
1137   0.07928   0.89511   -0.40641   0.18397   0.07928   0.89511   -0.40641   0.18397   102.08740
1138   0.07923   0.89547   -0.40596   0.18284   0.07923   0.89547   -0.40596   0.18284   102.09045
1139   0.07928   0.89523   -0.40663   0.18253   0.07928   0.89523   -0.40663   0.18253   102.11182
1140   0.07925   0.89520   -0.40626   0.18372   0.07925   0.89520   -0.40626   0.18372   102.13623
1141   0.07931   0.89538   -0.40559   0.18455   0.07931   0.89538   -0.40559   0.18455   102.04163
1142   0.07924   0.89581   -0.40590   0.18186   0.07924   0.89581   -0.40590   0.18186   102.12402
1143   0.07922   0.89496   -0.40745   0.18274   0.07922   0.89496   -0.40745   0.18274   102.14844
1144   0.07924   0.89483   -0.40690   0.18375   0.07924   0.89483   -0.40690   0.18375   102.11182
1145   0.07922   0.89557   -0.40611   0.18268   0.07922   0.89557   -0.40611   0.18268   102.02026
1146   0.07919   0.89496   -0.40681   0.18360   0.07919   0.89496   -0.40681   0.18360   102.12708
1147   0.07914   0.89541   -0.40614   0.18287   0.07914   0.89541   -0.40614   0.18287   102.19727
1148   0.07926   0.89566   -0.40535   0.18357   0.07926   0.89566   -0.40535   0.18357   102.05383
1149   0.07927   0.89590   -0.40532   0.18250   0.07927   0.89590   -0.40532   0.18250   102.03247
1150   0.07918   0.89511   -0.40706   0.18220   0.07918   0.89511   -0.40706   0.18220   102.16064
1151   0.07921   0.89557   -0.40608   0.18256   0.07921   0.89557   -0.40608   0.18256   102.19421
1152   0.07931   0.89462   -0.40782   0.18317   0.07931   0.89462   -0.40782   0.18317   102.05383
1153   0.07934   0.89511   -0.40675   0.18290   0.07934   0.89511   -0.40675   0.18290   102.05383
1154   0.07923   0.89511   -0.40635   0.18400   0.07923   0.89511   -0.40635   0.18400   102.16980
1155   0.07925   0.89538   -0.40657   0.18284   0.07925   0.89538   -0.40657   0.18284   102.15759
1156   0.07934   0.89541   -0.40550   0.18464   0.07934   0.89541   -0.40550   0.18464   102.04163
1157   0.07931   0.89575   -0.40562   0.18253   0.07931   0.89575   -0.40562   0.18253   102.02942
1158   0.07919   0.89593   -0.40489   0.18326   0.07919   0.89593   -0.40489   0.18326   102.14844
1159   0.07913   0.89569   -0.40513   0.18384   0.07913   0.89569   -0.40513   0.18384   102.09351
1160   0.07930   0.89557   -0.40547   0.18372   0.07930   0.89557   -0.40547   0.18372   102.02026
1161   0.07922   0.89560   -0.40559   0.18326   0.07922   0.89560   -0.40559   0.18326   102.11487
1162   0.07918   0.89544   -0.40651   0.18220   0.07918   0.89544   -0.40651   0.18220   102.14844
1163   0.07926   0.89535   -0.40565   0.18412   0.07926   0.89535   -0.40565   0.18412   102.09045
1164   0.07930   0.89544   -0.40611   0.18293   0.07930   0.89544   -0.40611   0.18293   102.06604
1165   0.07936   0.89517   -0.40623   0.18384   0.07936   0.89517   -0.40623   0.18384   102.07520
1166   0.07932   0.89544   -0.40648   0.18253   0.07932   0.89544   -0.40648   0.18253   102.13318
1167   0.07928   0.89532   -0.40584   0.18424   0.07928   0.89532   -0.40584   0.18424   102.08740
1168   0.07926   0.89529   -0.40580   0.18439   0.07926   0.89529   -0.40580   0.18439   102.11182
1169   0.07933   0.89541   -0.40580   0.18375   0.07933   0.89541   -0.40580   0.18375   102.13318
1170   0.07927   0.89544   -0.40599   0.18332   0.07927   0.89544   -0.40599   0.18332   102.14539
1171   0.07924   0.89523   -0.40596   0.18470   0.07924   0.89523   -0.40596   0.18470   102.06604
1172   0.07915   0.89575   -0.40535   0.18332   0.07915   0.89575   -0.40535   0.18332   102.09351
1173   0.07919   0.89547   -0.40492   0.18546   0.07919   0.89547   -0.40492   0.18546   102.14844
1174   0.07920   0.89496   -0.40666   0.18400   0.07920   0.89496   -0.40666   0.18400   102.10266
1175   0.07924   0.89532   -0.40651   0.18229   0.07924   0.89532   -0.40651   0.18229   102.05383
1176   0.07920   0.89520   -0.40617   0.18366   0.07920   0.89520   -0.40617   0.18366   102.13623
1177   0.07918   0.89529   -0.40669   0.18201   0.07918   0.89529   -0.40669   0.18201   102.12708
1178   0.07926   0.89575   -0.40449   0.18531   0.07926   0.89575   -0.40449   0.18531   102.05383
1179   0.07928   0.89575   -0.40541   0.18271   0.07928   0.89575   -0.40541   0.18271   102.08740
1180   0.07922   0.89569   -0.40632   0.18171   0.07922   0.89569   -0.40632   0.18171   102.16064
1181   0.07924   0.89599   -0.40510   0.18284   0.07924   0.89599   -0.40510   0.18284   102.13623
1182   0.07930   0.89554   -0.40577   0.18345   0.07930   0.89554   -0.40577   0.18345   102.05383
1183   0.07911   0.89520   -0.40675   0.18305   0.07911   0.89520   -0.40675   0.18305   102.06909
1184   0.07903   0.89520   -0.40654   0.18348   0.07903   0.89520   -0.40654   0.18348   102.17590
1185   0.07928   0.89477   -0.40651   0.18522   0.07928   0.89477   -0.40651   0.18522   102.13623
1186   0.07939   0.89505   -0.40617   0.18467   0.07939   0.89505   -0.40617   0.18467   102.03857
1187   0.07913   0.89581   -0.40535   0.18296   0.07913   0.89581   -0.40535   0.18296   102.10571
1188   0.07907   0.89633   -0.40413   0.18302   0.07907   0.89633   -0.40413   0.18302   102.13013
1189   0.07921   0.89624   -0.40413   0.18381   0.07921   0.89624   -0.40413   0.18381   102.04468
1190   0.07929   0.89660   -0.40367   0.18250   0.07929   0.89660   -0.40367   0.18250   102.05383
1191   0.07920   0.89590   -0.40532   0.18250   0.07920   0.89590   -0.40532   0.18250   102.12708
1192   0.07913   0.89605   -0.40477   0.18317   0.07913   0.89605   -0.40477   0.18317   102.18506
1193   0.07922   0.89584   -0.40480   0.18397   0.07922   0.89584   -0.40480   0.18397   102.07825
1194   0.07931   0.89624   -0.40437   0.18293   0.07931   0.89624   -0.40437   0.18293   102.04163
1195   0.07925   0.89602   -0.40468   0.18363   0.07925   0.89602   -0.40468   0.18363   102.13623
1196   0.07922   0.89602   -0.40425   0.18406   0.07922   0.89602   -0.40425   0.18406   102.11487
1197   0.07926   0.89566   -0.40568   0.18326   0.07926   0.89566   -0.40568   0.18326   102.07825
1198   0.07925   0.89544   -0.40596   0.18345   0.07925   0.89544   -0.40596   0.18345   102.06604
1199   0.07921   0.89560   -0.40516   0.18397   0.07921   0.89560   -0.40516   0.18397   102.16064
1200   0.07917   0.89532   -0.40596   0.18403   0.07917   0.89532   -0.40596   0.18403   102.10266
1201   0.07930   0.89566   -0.40477   0.18485   0.07930   0.89566   -0.40477   0.18485   102.04163
1202   0.07922   0.89578   -0.40547   0.18271   0.07922   0.89578   -0.40547   0.18271   102.07825
1203   0.07919   0.89575   -0.40577   0.18271   0.07919   0.89575   -0.40577   0.18271   102.14844
1204   0.07935   0.89563   -0.40510   0.18424   0.07935   0.89563   -0.40510   0.18424   102.06299
1205   0.07934   0.89602   -0.40428   0.18436   0.07934   0.89602   -0.40428   0.18436   102.08740
1206   0.07925   0.89544   -0.40532   0.18436   0.07925   0.89544   -0.40532   0.18436   102.13623
1207   0.07924   0.89560   -0.40513   0.18430   0.07924   0.89560   -0.40513   0.18430   102.13623
1208   0.07937   0.89569   -0.40507   0.18372   0.07937   0.89569   -0.40507   0.18372   102.02942
1209   0.07930   0.89538   -0.40593   0.18384   0.07930   0.89538   -0.40593   0.18384   102.08740
1210   0.07925   0.89544   -0.40565   0.18351   0.07925   0.89544   -0.40565   0.18351   102.16980
1211   0.07927   0.89492   -0.40675   0.18409   0.07927   0.89492   -0.40675   0.18409   102.12402
1212   0.07931   0.89541   -0.40519   0.18479   0.07931   0.89541   -0.40519   0.18479   102.06604
1213   0.07921   0.89554   -0.40492   0.18458   0.07921   0.89554   -0.40492   0.18458   102.12402
1214   0.07912   0.89535   -0.40669   0.18192   0.07912   0.89535   -0.40669   0.18192   102.15149
1215   0.07925   0.89557   -0.40507   0.18445   0.07925   0.89557   -0.40507   0.18445   102.06604
1216   0.07927   0.89544   -0.40559   0.18378   0.07927   0.89544   -0.40559   0.18378   102.04163
1217   0.07922   0.89560   -0.40486   0.18479   0.07922   0.89560   -0.40486   0.18479   102.10266
1218   0.07918   0.89538   -0.40632   0.18274   0.07918   0.89538   -0.40632   0.18274   102.18506
1219   0.07928   0.89526   -0.40541   0.18494   0.07928   0.89526   -0.40541   0.18494   102.04163
1220   0.07938   0.89557   -0.40486   0.18543   0.07938   0.89557   -0.40486   0.18543   102.06299
1221   0.07928   0.89593   -0.40419   0.18488   0.07928   0.89593   -0.40419   0.18488   102.14539
1222   0.07926   0.89590   -0.40425   0.18451   0.07926   0.89590   -0.40425   0.18451   102.16980
1223   0.07933   0.89590   -0.40504   0.18360   0.07933   0.89590   -0.40504   0.18360   102.00806
1224   0.07935   0.89584   -0.40474   0.18415   0.07935   0.89584   -0.40474   0.18415   102.01721
1225   0.07922   0.89612   -0.40428   0.18372   0.07922   0.89612   -0.40428   0.18372   102.14844
1226   0.07920   0.89602   -0.40373   0.18509   0.07920   0.89602   -0.40373   0.18509   102.12708
1227   0.07925   0.89624   -0.40391   0.18418   0.07925   0.89624   -0.40391   0.18418   102.03247
1228   0.07918   0.89618   -0.40364   0.18503   0.07918   0.89618   -0.40364   0.18503   102.08130
1229   0.07917   0.89618   -0.40504   0.18216   0.07917   0.89618   -0.40504   0.18216   102.13928
1230   0.07929   0.89578   -0.40407   0.18598   0.07929   0.89578   -0.40407   0.18598   102.07825
1231   0.07929   0.89608   -0.40376   0.18543   0.07929   0.89608   -0.40376   0.18543   102.04163
1232   0.07926   0.89593   -0.40397   0.18509   0.07926   0.89593   -0.40397   0.18509   102.05383
1233   0.07923   0.89557   -0.40452   0.18567   0.07923   0.89557   -0.40452   0.18567   102.10266
1234   0.07928   0.89566   -0.40474   0.18537   0.07928   0.89566   -0.40474   0.18537   102.05383
1235   0.07933   0.89578   -0.40443   0.18509   0.07933   0.89578   -0.40443   0.18509   102.04163
1236   0.07931   0.89563   -0.40495   0.18442   0.07931   0.89563   -0.40495   0.18442   102.06604
1237   0.07931   0.89563   -0.40529   0.18403   0.07931   0.89563   -0.40529   0.18403   102.09961
1238   0.07933   0.89590   -0.40410   0.18513   0.07933   0.89590   -0.40410   0.18513   102.06299
1239   0.07925   0.89581   -0.40428   0.18516   0.07925   0.89581   -0.40428   0.18516   102.07825
1240   0.07921   0.89596   -0.40394   0.18531   0.07921   0.89596   -0.40394   0.18531   102.11487
1241   0.07917   0.89584   -0.40434   0.18464   0.07917   0.89584   -0.40434   0.18464   102.11487
1242   0.07921   0.89550   -0.40483   0.18506   0.07921   0.89550   -0.40483   0.18506   102.09045
1243   0.07918   0.89547   -0.40553   0.18433   0.07918   0.89547   -0.40553   0.18433   102.12708
1244   0.07917   0.89547   -0.40507   0.18473   0.07917   0.89547   -0.40507   0.18473   102.10266
1245   0.07930   0.89599   -0.40410   0.18461   0.07930   0.89599   -0.40410   0.18461   102.04163
1246   0.07922   0.89557   -0.40486   0.18525   0.07922   0.89557   -0.40486   0.18525   102.10266
1247   0.07916   0.89550   -0.40510   0.18528   0.07916   0.89550   -0.40510   0.18528   102.16064
1248   0.07925   0.89575   -0.40431   0.18528   0.07925   0.89575   -0.40431   0.18528   102.09961
1249   0.07939   0.89590   -0.40367   0.18616   0.07939   0.89590   -0.40367   0.18616   102.02942
1250   0.07930   0.89584   -0.40471   0.18451   0.07930   0.89584   -0.40471   0.18451   102.07825
1251   0.07923   0.89602   -0.40428   0.18394   0.07923   0.89602   -0.40428   0.18394   102.19421
1252   0.07928   0.89621   -0.40361   0.18500   0.07928   0.89621   -0.40361   0.18500   102.09961
1253   0.07933   0.89621   -0.40349   0.18528   0.07933   0.89621   -0.40349   0.18528   101.98364
1254   0.07922   0.89575   -0.40471   0.18467   0.07922   0.89575   -0.40471   0.18467   102.10266
1255   0.07912   0.89596   -0.40474   0.18342   0.07912   0.89596   -0.40474   0.18342   102.17285
1256   0.07924   0.89651   -0.40281   0.18549   0.07924   0.89651   -0.40281   0.18549   102.05383
1257   0.07924   0.89688   -0.40239   0.18421   0.07924   0.89688   -0.40239   0.18421   102.02026
1258   0.07919   0.89590   -0.40437   0.18455   0.07919   0.89590   -0.40437   0.18455   102.12708
1259   0.07917   0.89645   -0.40291   0.18531   0.07917   0.89645   -0.40291   0.18531   102.11487
1260   0.07927   0.89605   -0.40407   0.18455   0.07927   0.89605   -0.40407   0.18455   102.02026
1261   0.07929   0.89657   -0.40287   0.18491   0.07929   0.89657   -0.40287   0.18491   102.05383
1262   0.07925   0.89657   -0.40291   0.18442   0.07925   0.89657   -0.40291   0.18442   102.12402
1263   0.07925   0.89663   -0.40229   0.18546   0.07925   0.89663   -0.40229   0.18546   102.09961
1264   0.07919   0.89630   -0.40300   0.18558   0.07919   0.89630   -0.40300   0.18558   102.03247
1265   0.07913   0.89651   -0.40324   0.18421   0.07913   0.89651   -0.40324   0.18421   102.02332
1266   0.07924   0.89602   -0.40394   0.18531   0.07924   0.89602   -0.40394   0.18531   102.13623
1267   0.07932   0.89615   -0.40327   0.18592   0.07932   0.89615   -0.40327   0.18592   102.07520
1268   0.07928   0.89605   -0.40367   0.18540   0.07928   0.89605   -0.40367   0.18540   102.03247
1269   0.07914   0.89621   -0.40352   0.18516   0.07914   0.89621   -0.40352   0.18516   102.03552
1270   0.07921   0.89682   -0.40162   0.18604   0.07921   0.89682   -0.40162   0.18604   102.10266
1271   0.07924   0.89602   -0.40352   0.18604   0.07924   0.89602   -0.40352   0.18604   102.06604
1272   0.07929   0.89636   -0.40312   0.18528   0.07929   0.89636   -0.40312   0.18528   102.05383
1273   0.07927   0.89676   -0.40181   0.18589   0.07927   0.89676   -0.40181   0.18589   102.09045
1274   0.07926   0.89605   -0.40385   0.18476   0.07926   0.89605   -0.40385   0.18476   102.07825
1275   0.07933   0.89627   -0.40321   0.18540   0.07933   0.89627   -0.40321   0.18540   102.01721
1276   0.07929   0.89657   -0.40236   0.18552   0.07929   0.89657   -0.40236   0.18552   102.08740
1277   0.07926   0.89624   -0.40303   0.18589   0.07926   0.89624   -0.40303   0.18589   102.12402
1278   0.07926   0.89688   -0.40172   0.18589   0.07926   0.89688   -0.40172   0.18589   102.04163
1279   0.07932   0.89621   -0.40294   0.18613   0.07932   0.89621   -0.40294   0.18613   102.02942
1280   0.07927   0.89630   -0.40306   0.18567   0.07927   0.89630   -0.40306   0.18567   102.15759
1281   0.07921   0.89657   -0.40236   0.18577   0.07921   0.89657   -0.40236   0.18577   102.14844
1282   0.07924   0.89654   -0.40217   0.18635   0.07924   0.89654   -0.40217   0.18635   101.99585
1283   0.07927   0.89679   -0.40181   0.18589   0.07927   0.89679   -0.40181   0.18589   102.04163
1284   0.07934   0.89682   -0.40214   0.18549   0.07934   0.89682   -0.40214   0.18549   102.09961
1285   0.07920   0.89584   -0.40367   0.18635   0.07920   0.89584   -0.40367   0.18635   102.12708
1286   0.07918   0.89639   -0.40275   0.18583   0.07918   0.89639   -0.40275   0.18583   102.02332
1287   0.07925   0.89718   -0.40107   0.18616   0.07925   0.89718   -0.40107   0.18616   102.02026
1288   0.07930   0.89627   -0.40330   0.18509   0.07930   0.89627   -0.40330   0.18509   102.13318
1289   0.07930   0.89621   -0.40297   0.18662   0.07930   0.89621   -0.40297   0.18662   102.13318
1290   0.07936   0.89727   -0.40147   0.18497   0.07936   0.89727   -0.40147   0.18497   101.95923
1291   0.07923   0.89636   -0.40229   0.18659   0.07923   0.89636   -0.40229   0.18659   102.09045
1292   0.07923   0.89642   -0.40266   0.18543   0.07923   0.89642   -0.40266   0.18543   102.16980
1293   0.07929   0.89624   -0.40315   0.18561   0.07929   0.89624   -0.40315   0.18561   102.13623
1294   0.07934   0.89645   -0.40269   0.18534   0.07934   0.89645   -0.40269   0.18534   101.99585
1295   0.07924   0.89639   -0.40297   0.18561   0.07924   0.89639   -0.40297   0.18561   102.05383
1296   0.07913   0.89673   -0.40184   0.18610   0.07913   0.89673   -0.40184   0.18610   102.09351
1297   0.07919   0.89660   -0.40202   0.18659   0.07919   0.89660   -0.40202   0.18659   102.09045
1298   0.07930   0.89694   -0.40135   0.18595   0.07930   0.89694   -0.40135   0.18595   101.99585
1299   0.07931   0.89673   -0.40275   0.18430   0.07931   0.89673   -0.40275   0.18430   102.05383
1300   0.07933   0.89669   -0.40211   0.18595   0.07933   0.89669   -0.40211   0.18595   102.09961
1301   0.07920   0.89630   -0.40294   0.18589   0.07920   0.89630   -0.40294   0.18589   102.07825
1302   0.07913   0.89624   -0.40355   0.18421   0.07913   0.89624   -0.40355   0.18421   102.03552
1303   0.07926   0.89621   -0.40364   0.18451   0.07926   0.89621   -0.40364   0.18451   102.09961
1304   0.07931   0.89712   -0.40123   0.18574   0.07931   0.89712   -0.40123   0.18574   102.06604
1305   0.07925   0.89633   -0.40321   0.18519   0.07925   0.89633   -0.40321   0.18519   102.05383
1306   0.07920   0.89645   -0.40275   0.18583   0.07920   0.89645   -0.40275   0.18583   102.06909
1307   0.07926   0.89615   -0.40327   0.18604   0.07926   0.89615   -0.40327   0.18604   102.09961
1308   0.07926   0.89669   -0.40196   0.18598   0.07926   0.89669   -0.40196   0.18598   102.04163
1309   0.07922   0.89651   -0.40233   0.18616   0.07922   0.89651   -0.40233   0.18616   102.04468
1310   0.07911   0.89682   -0.40214   0.18537   0.07911   0.89682   -0.40214   0.18537   102.06909
1311   0.07916   0.89676   -0.40199   0.18540   0.07916   0.89676   -0.40199   0.18540   102.09045
1312   0.07921   0.89666   -0.40168   0.18717   0.07921   0.89666   -0.40168   0.18717   102.01111
1313   0.07922   0.89657   -0.40223   0.18592   0.07922   0.89657   -0.40223   0.18592   102.07825
1314   0.07917   0.89645   -0.40275   0.18516   0.07917   0.89645   -0.40275   0.18516   102.11487
1315   0.07921   0.89685   -0.40165   0.18564   0.07921   0.89685   -0.40165   0.18564   102.06909
1316   0.07929   0.89715   -0.40092   0.18628   0.07929   0.89715   -0.40092   0.18628   101.97449
1317   0.07925   0.89666   -0.40233   0.18537   0.07925   0.89666   -0.40233   0.18537   102.06604
1318   0.07922   0.89697   -0.40156   0.18552   0.07922   0.89697   -0.40156   0.18552   102.14844
1319   0.07926   0.89657   -0.40168   0.18690   0.07926   0.89657   -0.40168   0.18690   102.05383
1320   0.07939   0.89630   -0.40208   0.18766   0.07939   0.89630   -0.40208   0.18766   101.94702
1321   0.07932   0.89612   -0.40226   0.18784   0.07932   0.89612   -0.40226   0.18784   102.05383
1322   0.07918   0.89615   -0.40339   0.18555   0.07918   0.89615   -0.40339   0.18555   102.12708
1323   0.07920   0.89660   -0.40193   0.18610   0.07920   0.89660   -0.40193   0.18610   102.05688
1324   0.07919   0.89645   -0.40251   0.18613   0.07919   0.89645   -0.40251   0.18613   101.99890
1325   0.07919   0.89648   -0.40251   0.18598   0.07919   0.89648   -0.40251   0.18598   102.11487
1326   0.07916   0.89630   -0.40269   0.18622   0.07916   0.89630   -0.40269   0.18622   102.12708
1327   0.07925   0.89636   -0.40281   0.18577   0.07925   0.89636   -0.40281   0.18577   102.04468
1328   0.07925   0.89630   -0.40309   0.18552   0.07925   0.89630   -0.40309   0.18552   102.02026
1329   0.07921   0.89642   -0.40291   0.18537   0.07921   0.89642   -0.40291   0.18537   102.12402
1330   0.07921   0.89691   -0.40226   0.18451   0.07921   0.89691   -0.40226   0.18451   102.10266
1331   0.07933   0.89560   -0.40443   0.18577   0.07933   0.89560   -0.40443   0.18577   102.02942
1332   0.07931   0.89596   -0.40391   0.18525   0.07931   0.89596   -0.40391   0.18525   102.05383
1333   0.07923   0.89624   -0.40324   0.18549   0.07923   0.89624   -0.40324   0.18549   102.11182
1334   0.07924   0.89599   -0.40312   0.18720   0.07924   0.89599   -0.40312   0.18720   102.09045
1335   0.07931   0.89639   -0.40239   0.18613   0.07931   0.89639   -0.40239   0.18613   102.02942
1336   0.07922   0.89578   -0.40397   0.18561   0.07922   0.89578   -0.40397   0.18561   102.09045
1337   0.07917   0.89648   -0.40303   0.18516   0.07917   0.89648   -0.40303   0.18516   102.11487
1338   0.07913   0.89624   -0.40272   0.18659   0.07913   0.89624   -0.40272   0.18659   102.05688
1339   0.07926   0.89602   -0.40388   0.18503   0.07926   0.89602   -0.40388   0.18503   102.05383
1340   0.07916   0.89569   -0.40428   0.18574   0.07916   0.89569   -0.40428   0.18574   102.12708
1341   0.07920   0.89581   -0.40361   0.18610   0.07920   0.89581   -0.40361   0.18610   102.07825
1342   0.07923   0.89605   -0.40318   0.18653   0.07923   0.89605   -0.40318   0.18653   102.03247
1343   0.07925   0.89627   -0.40339   0.18482   0.07925   0.89627   -0.40339   0.18482   102.09961
1344   0.07921   0.89612   -0.40321   0.18604   0.07921   0.89612   -0.40321   0.18604   102.11487
1345   0.07923   0.89648   -0.40248   0.18543   0.07923   0.89648   -0.40248   0.18543   102.10266
1346   0.07928   0.89621   -0.40345   0.18552   0.07928   0.89621   -0.40345   0.18552   102.04163
1347   0.07925   0.89578   -0.40446   0.18497   0.07925   0.89578   -0.40446   0.18497   102.09961
1348   0.07925   0.89578   -0.40407   0.18567   0.07925   0.89578   -0.40407   0.18567   102.12402
1349   0.07925   0.89608   -0.40361   0.18574   0.07925   0.89608   -0.40361   0.18574   102.06604
1350   0.07923   0.89596   -0.40361   0.18583   0.07923   0.89596   -0.40361   0.18583   102.07825
1351   0.07916   0.89608   -0.40428   0.18357   0.07916   0.89608   -0.40428   0.18357   102.11487
1352   0.07914   0.89581   -0.40437   0.18461   0.07914   0.89581   -0.40437   0.18461   102.12708
1353   0.07921   0.89578   -0.40403   0.18577   0.07921   0.89578   -0.40403   0.18577   102.05688
1354   0.07919   0.89599   -0.40342   0.18665   0.07919   0.89599   -0.40342   0.18665   102.05688
1355   0.07919   0.89587   -0.40416   0.18571   0.07919   0.89587   -0.40416   0.18571   102.13623
1356   0.07922   0.89550   -0.40471   0.18619   0.07922   0.89550   -0.40471   0.18619   102.10266
1357   0.07931   0.89587   -0.40367   0.18616   0.07931   0.89587   -0.40367   0.18616   102.02026
1358   0.07925   0.89550   -0.40492   0.18528   0.07925   0.89550   -0.40492   0.18528   102.09961
1359   0.07918   0.89544   -0.40480   0.18574   0.07918   0.89544   -0.40480   0.18574   102.16064
1360   0.07922   0.89569   -0.40379   0.18674   0.07922   0.89569   -0.40379   0.18674   102.13623
1361   0.07932   0.89563   -0.40428   0.18592   0.07932   0.89563   -0.40428   0.18592   102.01721
1362   0.07926   0.89612   -0.40370   0.18528   0.07926   0.89612   -0.40370   0.18528   102.09045
1363   0.07917   0.89526   -0.40553   0.18494   0.07917   0.89526   -0.40553   0.18494   102.18506
1364   0.07922   0.89529   -0.40498   0.18595   0.07922   0.89529   -0.40498   0.18595   102.11487
1365   0.07929   0.89581   -0.40413   0.18546   0.07929   0.89581   -0.40413   0.18546   102.00806
1366   0.07926   0.89538   -0.40526   0.18467   0.07926   0.89538   -0.40526   0.18467   102.11182
1367   0.07913   0.89596   -0.40379   0.18552   0.07913   0.89596   -0.40379   0.18552   102.16370
1368   0.07922   0.89554   -0.40516   0.18436   0.07922   0.89554   -0.40516   0.18436   102.05688
1369   0.07925   0.89569   -0.40513   0.18378   0.07925   0.89569   -0.40513   0.18378   102.06604
1370   0.07922   0.89560   -0.40522   0.18415   0.07922   0.89560   -0.40522   0.18415   102.10266
1371   0.07920   0.89615   -0.40391   0.18445   0.07920   0.89615   -0.40391   0.18445   102.12708
1372   0.07926   0.89602   -0.40425   0.18436   0.07926   0.89602   -0.40425   0.18436   102.05383
1373   0.07929   0.89554   -0.40507   0.18476   0.07929   0.89554   -0.40507   0.18476   102.06604
1374   0.07921   0.89550   -0.40529   0.18482   0.07921   0.89550   -0.40529   0.18482   102.12402
1375   0.07922   0.89566   -0.40443   0.18537   0.07922   0.89566   -0.40443   0.18537   102.10266
1376   0.07928   0.89596   -0.40391   0.18552   0.07928   0.89596   -0.40391   0.18552   102.04163
1377   0.07922   0.89593   -0.40492   0.18332   0.07922   0.89593   -0.40492   0.18332   102.07825
1378   0.07916   0.89596   -0.40419   0.18455   0.07916   0.89596   -0.40419   0.18455   102.13928
1379   0.07917   0.89584   -0.40489   0.18397   0.07917   0.89584   -0.40489   0.18397   102.09045
1380   0.07924   0.89578   -0.40471   0.18436   0.07924   0.89578   -0.40471   0.18436   102.07825
1381   0.07921   0.89615   -0.40464   0.18290   0.07921   0.89615   -0.40464   0.18290   102.12402
1382   0.07922   0.89557   -0.40559   0.18363   0.07922   0.89557   -0.40559   0.18363   102.13623
1383   0.07914   0.89560   -0.40544   0.18384   0.07914   0.89560   -0.40544   0.18384   102.03552
1384   0.07906   0.89496   -0.40538   0.18690   0.07906   0.89496   -0.40538   0.18690   102.09351
1385   0.07925   0.89535   -0.40498   0.18571   0.07925   0.89535   -0.40498   0.18571   102.15759
1386   0.07933   0.89544   -0.40556   0.18473   0.07933   0.89544   -0.40556   0.18473   102.09961
1387   0.07933   0.89532   -0.40562   0.18482   0.07933   0.89532   -0.40562   0.18482   102.02942
1388   0.07922   0.89560   -0.40559   0.18311   0.07922   0.89560   -0.40559   0.18311   102.11487
1389   0.07928   0.89508   -0.40538   0.18632   0.07928   0.89508   -0.40538   0.18632   102.18201
1390   0.07937   0.89508   -0.40596   0.18458   0.07937   0.89508   -0.40596   0.18458   102.10876
1391   0.07929   0.89554   -0.40489   0.18546   0.07929   0.89554   -0.40489   0.18546   102.02942
1392   0.07917   0.89557   -0.40568   0.18317   0.07917   0.89557   -0.40568   0.18317   102.13928
1393   0.07909   0.89590   -0.40541   0.18223   0.07909   0.89590   -0.40541   0.18223   102.17590
1394   0.07922   0.89499   -0.40648   0.18397   0.07922   0.89499   -0.40648   0.18397   102.09045
1395   0.07924   0.89517   -0.40663   0.18320   0.07924   0.89517   -0.40663   0.18320   102.03247
1396   0.07922   0.89523   -0.40645   0.18339   0.07922   0.89523   -0.40645   0.18339   102.14844
1397   0.07921   0.89569   -0.40541   0.18357   0.07921   0.89569   -0.40541   0.18357   102.18201
1398   0.07932   0.89557   -0.40501   0.18488   0.07932   0.89557   -0.40501   0.18488   102.04163
1399   0.07932   0.89560   -0.40590   0.18268   0.07932   0.89560   -0.40590   0.18268   102.06604
1400   0.07932   0.89480   -0.40761   0.18323   0.07932   0.89480   -0.40761   0.18323   102.17896
1401   0.07932   0.89502   -0.40651   0.18409   0.07932   0.89502   -0.40651   0.18409   102.16980
1402   0.07933   0.89508   -0.40660   0.18326   0.07933   0.89508   -0.40660   0.18326   102.05383
1403   0.07934   0.89544   -0.40584   0.18363   0.07934   0.89544   -0.40584   0.18363   102.02942
1404   0.07927   0.89529   -0.40574   0.18430   0.07927   0.89529   -0.40574   0.18430   102.16980
1405   0.07931   0.89535   -0.40577   0.18372   0.07931   0.89535   -0.40577   0.18372   102.12402
1406   0.07931   0.89532   -0.40620   0.18336   0.07931   0.89532   -0.40620   0.18336   102.06604
1407   0.07920   0.89554   -0.40645   0.18189   0.07920   0.89554   -0.40645   0.18189   102.09045
1408   0.07920   0.89526   -0.40608   0.18381   0.07920   0.89526   -0.40608   0.18381   102.17285
1409   0.07928   0.89541   -0.40574   0.18351   0.07928   0.89541   -0.40574   0.18351   102.09961
1410   0.07924   0.89554   -0.40620   0.18281   0.07924   0.89554   -0.40620   0.18281   102.06604
1411   0.07923   0.89474   -0.40709   0.18424   0.07923   0.89474   -0.40709   0.18424   102.16064
1412   0.07926   0.89541   -0.40593   0.18384   0.07926   0.89541   -0.40593   0.18384   102.09045
1413   0.07929   0.89496   -0.40635   0.18476   0.07929   0.89496   -0.40635   0.18476   102.07825
1414   0.07929   0.89532   -0.40645   0.18308   0.07929   0.89532   -0.40645   0.18308   102.13623
1415   0.07926   0.89514   -0.40632   0.18390   0.07926   0.89514   -0.40632   0.18390   102.15759
1416   0.07931   0.89502   -0.40724   0.18278   0.07931   0.89502   -0.40724   0.18278   102.06604
1417   0.07933   0.89535   -0.40629   0.18311   0.07933   0.89535   -0.40629   0.18311   102.06299
1418   0.07922   0.89508   -0.40696   0.18287   0.07922   0.89508   -0.40696   0.18287   102.14844
1419   0.07922   0.89526   -0.40608   0.18329   0.07922   0.89526   -0.40608   0.18329   102.16064
1420   0.07918   0.89550   -0.40584   0.18296   0.07918   0.89550   -0.40584   0.18296   102.06909
1421   0.07922   0.89480   -0.40757   0.18290   0.07922   0.89480   -0.40757   0.18290   102.07825
1422   0.07918   0.89492   -0.40703   0.18363   0.07918   0.89492   -0.40703   0.18363   102.12708
1423   0.07918   0.89496   -0.40733   0.18302   0.07918   0.89496   -0.40733   0.18302   102.14844
1424   0.07928   0.89575   -0.40507   0.18394   0.07928   0.89575   -0.40507   0.18394   102.04163
1425   0.07923   0.89538   -0.40620   0.18274   0.07923   0.89538   -0.40620   0.18274   102.11182
1426   0.07919   0.89547   -0.40657   0.18207   0.07919   0.89547   -0.40657   0.18207   102.19421
1427   0.07927   0.89508   -0.40715   0.18232   0.07927   0.89508   -0.40715   0.18232   102.12402
1428   0.07933   0.89486   -0.40721   0.18326   0.07933   0.89486   -0.40721   0.18326   102.06299
1429   0.07926   0.89505   -0.40699   0.18299   0.07926   0.89505   -0.40699   0.18299   102.12402
1430   0.07920   0.89517   -0.40687   0.18250   0.07920   0.89517   -0.40687   0.18250   102.18201
1431   0.07929   0.89483   -0.40733   0.18357   0.07929   0.89483   -0.40733   0.18357   102.11182
1432   0.07926   0.89508   -0.40721   0.18281   0.07926   0.89508   -0.40721   0.18281   102.05383
1433   0.07917   0.89523   -0.40733   0.18140   0.07917   0.89523   -0.40733   0.18140   102.11487
1434   0.07905   0.89502   -0.40724   0.18256   0.07905   0.89502   -0.40724   0.18256   102.18811
1435   0.07926   0.89520   -0.40690   0.18293   0.07926   0.89520   -0.40690   0.18293   102.05383
1436   0.07924   0.89502   -0.40681   0.18378   0.07924   0.89502   -0.40681   0.18378   102.03247
1437   0.07917   0.89517   -0.40715   0.18192   0.07917   0.89517   -0.40715   0.18192   102.14844
1438   0.07918   0.89508   -0.40678   0.18332   0.07918   0.89508   -0.40678   0.18332   102.18506
1439   0.07925   0.89474   -0.40736   0.18339   0.07925   0.89474   -0.40736   0.18339   102.11182
1440   0.07928   0.89453   -0.40864   0.18177   0.07928   0.89453   -0.40864   0.18177   102.11182
1441   0.07920   0.89505   -0.40727   0.18265   0.07920   0.89505   -0.40727   0.18265   102.12708
1442   0.07924   0.89499   -0.40709   0.18305   0.07924   0.89499   -0.40709   0.18305   102.10266
1443   0.07929   0.89465   -0.40819   0.18223   0.07929   0.89465   -0.40819   0.18223   102.07825
1444   0.07928   0.89462   -0.40803   0.18250   0.07928   0.89462   -0.40803   0.18250   102.08740
1445   0.07922   0.89477   -0.40730   0.18351   0.07922   0.89477   -0.40730   0.18351   102.16064
1446   0.07923   0.89496   -0.40773   0.18183   0.07923   0.89496   -0.40773   0.18183   102.09045
1447   0.07918   0.89441   -0.40892   0.18152   0.07918   0.89441   -0.40892   0.18152   102.11487
1448   0.07913   0.89438   -0.40873   0.18253   0.07913   0.89438   -0.40873   0.18253   102.13928
1449   0.07915   0.89450   -0.40840   0.18262   0.07915   0.89450   -0.40840   0.18262   102.15149
1450   0.07922   0.89453   -0.40803   0.18317   0.07922   0.89453   -0.40803   0.18317   102.09045
1451   0.07920   0.89410   -0.40876   0.18400   0.07920   0.89410   -0.40876   0.18400   102.10266
1452   0.07923   0.89386   -0.40928   0.18342   0.07923   0.89386   -0.40928   0.18342   102.18201
1453   0.07931   0.89447   -0.40730   0.18473   0.07931   0.89447   -0.40730   0.18473   102.14539
1454   0.07938   0.89453   -0.40739   0.18479   0.07938   0.89453   -0.40739   0.18479   102.07520
1455   0.07924   0.89465   -0.40831   0.18223   0.07924   0.89465   -0.40831   0.18223   102.13623
1456   0.07924   0.89459   -0.40840   0.18162   0.07924   0.89459   -0.40840   0.18162   102.14844
1457   0.07928   0.89428   -0.40834   0.18375   0.07928   0.89428   -0.40834   0.18375   102.07825
1458   0.07932   0.89434   -0.40861   0.18278   0.07932   0.89434   -0.40861   0.18278   102.07520
1459   0.07924   0.89422   -0.40834   0.18360   0.07924   0.89422   -0.40834   0.18360   102.19421
1460   0.07919   0.89505   -0.40779   0.18152   0.07919   0.89505   -0.40779   0.18152   102.16064
1461   0.07921   0.89422   -0.40855   0.18384   0.07921   0.89422   -0.40855   0.18384   102.03247
1462   0.07930   0.89419   -0.40803   0.18497   0.07930   0.89419   -0.40803   0.18497   102.07825
1463   0.07914   0.89404   -0.40941   0.18262   0.07914   0.89404   -0.40941   0.18262   102.17285
1464   0.07914   0.89343   -0.40983   0.18458   0.07914   0.89343   -0.40983   0.18458   102.17285
1465   0.07916   0.89462   -0.40709   0.18503   0.07916   0.89462   -0.40709   0.18503   102.05688
1466   0.07934   0.89392   -0.40864   0.18467   0.07934   0.89392   -0.40864   0.18467   102.08740
1467   0.07930   0.89416   -0.40910   0.18281   0.07930   0.89416   -0.40910   0.18281   102.13318
1468   0.07924   0.89431   -0.40812   0.18397   0.07924   0.89431   -0.40812   0.18397   102.12402
1469   0.07930   0.89413   -0.40907   0.18259   0.07930   0.89413   -0.40907   0.18259   102.05383
1470   0.07930   0.89422   -0.40840   0.18378   0.07930   0.89422   -0.40840   0.18378   102.08740
1471   0.07924   0.89450   -0.40797   0.18387   0.07924   0.89450   -0.40797   0.18387   102.20642
1472   0.07933   0.89465   -0.40773   0.18342   0.07933   0.89465   -0.40773   0.18342   102.06299
1473   0.07933   0.89447   -0.40834   0.18311   0.07933   0.89447   -0.40834   0.18311   102.02942
1474   0.07922   0.89471   -0.40831   0.18177   0.07922   0.89471   -0.40831   0.18177   102.12402
1475   0.07913   0.89438   -0.40895   0.18186   0.07913   0.89438   -0.40895   0.18186   102.13928
1476   0.07925   0.89419   -0.40870   0.18332   0.07925   0.89419   -0.40870   0.18332   102.05383
1477   0.07922   0.89489   -0.40785   0.18149   0.07922   0.89489   -0.40785   0.18149   102.09045
1478   0.07919   0.89502   -0.40767   0.18159   0.07919   0.89502   -0.40767   0.18159   102.12708
1479   0.07922   0.89425   -0.40898   0.18232   0.07922   0.89425   -0.40898   0.18232   102.14844
1480   0.07926   0.89447   -0.40837   0.18308   0.07926   0.89447   -0.40837   0.18308   102.06604
1481   0.07933   0.89398   -0.40892   0.18409   0.07933   0.89398   -0.40892   0.18409   102.11182
1482   0.07929   0.89462   -0.40748   0.18394   0.07929   0.89462   -0.40748   0.18394   102.16980
1483   0.07945   0.89410   -0.40861   0.18415   0.07945   0.89410   -0.40861   0.18415   102.10876
1484   0.07952   0.89444   -0.40745   0.18516   0.07952   0.89444   -0.40745   0.18516   102.09351
1485   0.07931   0.89419   -0.40925   0.18229   0.07931   0.89419   -0.40925   0.18229   102.13318
1486   0.07913   0.89434   -0.40840   0.18271   0.07913   0.89434   -0.40840   0.18271   102.17285
1487   0.07927   0.89499   -0.40767   0.18229   0.07927   0.89499   -0.40767   0.18229   102.05383
1488   0.07935   0.89456   -0.40809   0.18311   0.07935   0.89456   -0.40809   0.18311   102.09961
1489   0.07922   0.89532   -0.40672   0.18235   0.07922   0.89532   -0.40672   0.18235   102.16064
1490   0.07921   0.89505   -0.40730   0.18204   0.07921   0.89505   -0.40730   0.18204   102.13623
1491   0.07921   0.89456   -0.40840   0.18238   0.07921   0.89456   -0.40840   0.18238   102.05688
1492   0.07923   0.89444   -0.40803   0.18342   0.07923   0.89444   -0.40803   0.18342   102.12402
1493   0.07921   0.89499   -0.40730   0.18278   0.07921   0.89499   -0.40730   0.18278   102.13623
1494   0.07924   0.89502   -0.40699   0.18354   0.07924   0.89502   -0.40699   0.18354   102.13623
1495   0.07930   0.89434   -0.40846   0.18326   0.07930   0.89434   -0.40846   0.18326   102.04163
1496   0.07925   0.89483   -0.40797   0.18220   0.07925   0.89483   -0.40797   0.18220   102.09045
1497   0.07921   0.89480   -0.40757   0.18271   0.07921   0.89480   -0.40757   0.18271   102.19421
1498   0.07932   0.89407   -0.40858   0.18384   0.07932   0.89407   -0.40858   0.18384   102.07520
1499   0.07938   0.89450   -0.40785   0.18363   0.07938   0.89450   -0.40785   0.18363   102.07520
1500   0.07943   0.89434   -0.40831   0.18366   0.07943   0.89434   -0.40831   0.18366   102.16675
1501   0.07919   0.89438   -0.40788   0.18375   0.07919   0.89438   -0.40788   0.18375   102.19421
1502   0.07900   0.89477   -0.40797   0.18177   0.07900   0.89477   -0.40797   0.18177   102.06299
1503   0.07924   0.89422   -0.40788   0.18503   0.07924   0.89422   -0.40788   0.18503   102.09045
1504   0.07927   0.89438   -0.40852   0.18287   0.07927   0.89438   -0.40852   0.18287   102.18201
1505   0.07910   0.89505   -0.40718   0.18229   0.07910   0.89505   -0.40718   0.18229   102.18506
1506   0.07913   0.89450   -0.40837   0.18223   0.07913   0.89450   -0.40837   0.18223   102.08130
1507   0.07924   0.89468   -0.40782   0.18284   0.07924   0.89468   -0.40782   0.18284   102.09045
1508   0.07922   0.89438   -0.40861   0.18235   0.07922   0.89438   -0.40861   0.18235   102.17285
1509   0.07918   0.89483   -0.40706   0.18433   0.07918   0.89483   -0.40706   0.18433   102.14844
1510   0.07923   0.89532   -0.40654   0.18271   0.07923   0.89532   -0.40654   0.18271   102.02026
1511   0.07927   0.89477   -0.40767   0.18302   0.07927   0.89477   -0.40767   0.18302   102.09961
1512   0.07921   0.89453   -0.40794   0.18332   0.07921   0.89453   -0.40794   0.18332   102.16064
1513   0.07927   0.89492   -0.40657   0.18439   0.07927   0.89492   -0.40657   0.18439   102.09961
1514   0.07927   0.89496   -0.40767   0.18137   0.07927   0.89496   -0.40767   0.18137   102.12402
1515   0.07923   0.89474   -0.40779   0.18244   0.07923   0.89474   -0.40779   0.18244   102.07825
1516   0.07912   0.89508   -0.40718   0.18226   0.07912   0.89508   -0.40718   0.18226   102.11487
1517   0.07919   0.89517   -0.40635   0.18354   0.07919   0.89517   -0.40635   0.18354   102.04468
1518   0.07922   0.89514   -0.40699   0.18259   0.07922   0.89514   -0.40699   0.18259   102.07825
1519   0.07919   0.89544   -0.40690   0.18159   0.07919   0.89544   -0.40690   0.18159   102.10266
1520   0.07920   0.89538   -0.40657   0.18238   0.07920   0.89538   -0.40657   0.18238   102.11487
1521   0.07924   0.89496   -0.40773   0.18186   0.07924   0.89496   -0.40773   0.18186   102.07825
1522   0.07922   0.89486   -0.40681   0.18451   0.07922   0.89486   -0.40681   0.18451   102.12402
1523   0.07919   0.89550   -0.40590   0.18302   0.07919   0.89550   -0.40590   0.18302   102.12708
1524   0.07927   0.89489   -0.40742   0.18238   0.07927   0.89489   -0.40742   0.18238   102.07825
1525   0.07928   0.89505   -0.40648   0.18427   0.07928   0.89505   -0.40648   0.18427   102.07825
1526   0.07923   0.89492   -0.40724   0.18320   0.07923   0.89492   -0.40724   0.18320   102.18201
1527   0.07923   0.89496   -0.40782   0.18116   0.07923   0.89496   -0.40782   0.18116   102.18201
1528   0.07927   0.89468   -0.40779   0.18305   0.07927   0.89468   -0.40779   0.18305   102.07825
1529   0.07922   0.89508   -0.40706   0.18271   0.07922   0.89508   -0.40706   0.18271   102.09045
1530   0.07912   0.89526   -0.40660   0.18247   0.07912   0.89526   -0.40660   0.18247   102.17285
1531   0.07918   0.89529   -0.40614   0.18348   0.07918   0.89529   -0.40614   0.18348   102.12708
1532   0.07927   0.89499   -0.40703   0.18320   0.07927   0.89499   -0.40703   0.18320   102.00806
1533   0.07921   0.89520   -0.40666   0.18253   0.07921   0.89520   -0.40666   0.18253   102.09045
1534   0.07915   0.89538   -0.40638   0.18299   0.07915   0.89538   -0.40638   0.18299   102.15149
1535   0.07920   0.89532   -0.40645   0.18247   0.07920   0.89532   -0.40645   0.18247   102.13623
1536   0.07932   0.89541   -0.40593   0.18384   0.07932   0.89541   -0.40593   0.18384   102.01721
1537   0.07926   0.89541   -0.40556   0.18442   0.07926   0.89541   -0.40556   0.18442   102.07825
1538   0.07921   0.89560   -0.40605   0.18287   0.07921   0.89560   -0.40605   0.18287   102.17285
1539   0.07922   0.89520   -0.40654   0.18329   0.07922   0.89520   -0.40654   0.18329   102.10266
1540   0.07933   0.89456   -0.40785   0.18357   0.07933   0.89456   -0.40785   0.18357   102.04163
1541   0.07923   0.89526   -0.40623   0.18390   0.07923   0.89526   -0.40623   0.18390   102.13623
1542   0.07916   0.89547   -0.40605   0.18323   0.07916   0.89547   -0.40605   0.18323   102.17285
1543   0.07918   0.89544   -0.40584   0.18397   0.07918   0.89544   -0.40584   0.18397   102.06909
1544   0.07921   0.89560   -0.40593   0.18284   0.07921   0.89560   -0.40593   0.18284   102.01111
1545   0.07915   0.89535   -0.40605   0.18394   0.07915   0.89535   -0.40605   0.18394   102.15149
1546   0.07913   0.89520   -0.40663   0.18357   0.07913   0.89520   -0.40663   0.18357   102.11487
1547   0.07923   0.89535   -0.40532   0.18503   0.07923   0.89535   -0.40532   0.18503   102.07825
1548   0.07922   0.89529   -0.40577   0.18442   0.07922   0.89529   -0.40577   0.18442   102.07825
1549   0.07918   0.89566   -0.40507   0.18406   0.07918   0.89566   -0.40507   0.18406   102.10266
1550   0.07929   0.89563   -0.40440   0.18552   0.07929   0.89563   -0.40440   0.18552   102.09961
1551   0.07925   0.89593   -0.40504   0.18320   0.07925   0.89593   -0.40504   0.18320   102.07825
1552   0.07926   0.89593   -0.40483   0.18329   0.07926   0.89593   -0.40483   0.18329   102.11182
1553   0.07922   0.89593   -0.40410   0.18497   0.07922   0.89593   -0.40410   0.18497   102.14844
1554   0.07929   0.89532   -0.40577   0.18442   0.07929   0.89532   -0.40577   0.18442   102.09961
1555   0.07927   0.89572   -0.40510   0.18384   0.07927   0.89572   -0.40510   0.18384   102.06604
1556   0.07927   0.89612   -0.40349   0.18528   0.07927   0.89612   -0.40349   0.18528   102.13623
1557   0.07925   0.89584   -0.40416   0.18555   0.07925   0.89584   -0.40416   0.18555   102.09961
1558   0.07924   0.89621   -0.40413   0.18354   0.07924   0.89621   -0.40413   0.18354   102.04468
1559   0.07917   0.89572   -0.40550   0.18326   0.07917   0.89572   -0.40550   0.18326   102.12708
1560   0.07913   0.89624   -0.40477   0.18226   0.07913   0.89624   -0.40477   0.18226   102.17285
1561   0.07924   0.89630   -0.40449   0.18262   0.07924   0.89630   -0.40449   0.18262   102.07825
1562   0.07928   0.89618   -0.40413   0.18375   0.07928   0.89618   -0.40413   0.18375   102.00806
1563   0.07926   0.89602   -0.40458   0.18381   0.07926   0.89602   -0.40458   0.18381   102.09045
1564   0.07922   0.89608   -0.40391   0.18448   0.07922   0.89608   -0.40391   0.18448   102.19421
1565   0.07937   0.89593   -0.40437   0.18433   0.07937   0.89593   -0.40437   0.18433   102.06299
1566   0.07938   0.89618   -0.40358   0.18476   0.07938   0.89618   -0.40358   0.18476   102.06299
1567   0.07923   0.89633   -0.40318   0.18488   0.07923   0.89633   -0.40318   0.18488   102.12402
1568   0.07920   0.89615   -0.40373   0.18479   0.07920   0.89615   -0.40373   0.18479   102.14844
1569   0.07928   0.89615   -0.40358   0.18549   0.07928   0.89615   -0.40358   0.18549   102.00806
1570   0.07925   0.89593   -0.40400   0.18503   0.07925   0.89593   -0.40400   0.18503   102.04468
1571   0.07909   0.89584   -0.40522   0.18299   0.07909   0.89584   -0.40522   0.18299   102.19727
1572   0.07914   0.89560   -0.40532   0.18403   0.07914   0.89560   -0.40532   0.18403   102.11487
1573   0.07922   0.89618   -0.40367   0.18470   0.07922   0.89618   -0.40367   0.18470   102.00806
1574   0.07921   0.89599   -0.40492   0.18259   0.07921   0.89599   -0.40492   0.18259   102.09045
1575   0.07914   0.89642   -0.40336   0.18445   0.07914   0.89642   -0.40336   0.18445   102.11487
1576   0.07919   0.89669   -0.40251   0.18500   0.07919   0.89669   -0.40251   0.18500   102.07825
1577   0.07928   0.89630   -0.40379   0.18430   0.07928   0.89630   -0.40379   0.18430   102.02026
1578   0.07922   0.89584   -0.40443   0.18458   0.07922   0.89584   -0.40443   0.18458   102.11487
1579   0.07919   0.89630   -0.40339   0.18494   0.07919   0.89630   -0.40339   0.18494   102.13623
1580   0.07929   0.89581   -0.40468   0.18427   0.07929   0.89581   -0.40468   0.18427   102.04163
1581   0.07928   0.89624   -0.40336   0.18546   0.07928   0.89624   -0.40336   0.18546   102.08740
1582   0.07920   0.89599   -0.40376   0.18534   0.07920   0.89599   -0.40376   0.18534   102.10266
1583   0.07907   0.89612   -0.40434   0.18400   0.07907   0.89612   -0.40434   0.18400   102.10571
1584   0.07906   0.89612   -0.40275   0.18683   0.07906   0.89612   -0.40275   0.18683   102.05994
1585   0.07918   0.89560   -0.40461   0.18534   0.07918   0.89560   -0.40461   0.18534   102.06909
1586   0.07922   0.89599   -0.40407   0.18470   0.07922   0.89599   -0.40407   0.18470   102.13623
1587   0.07919   0.89602   -0.40422   0.18451   0.07919   0.89602   -0.40422   0.18451   102.01111
1588   0.07914   0.89654   -0.40281   0.18525   0.07914   0.89654   -0.40281   0.18525   102.01111
1589   0.07914   0.89663   -0.40281   0.18442   0.07914   0.89663   -0.40281   0.18442   102.09351
1590   0.07918   0.89608   -0.40367   0.18522   0.07918   0.89608   -0.40367   0.18522   102.11487
1591   0.07927   0.89590   -0.40385   0.18586   0.07927   0.89590   -0.40385   0.18586   102.00806
1592   0.07921   0.89700   -0.40168   0.18546   0.07921   0.89700   -0.40168   0.18546   102.04468
1593   0.07917   0.89645   -0.40275   0.18500   0.07917   0.89645   -0.40275   0.18500   102.16064
1594   0.07921   0.89657   -0.40275   0.18509   0.07921   0.89657   -0.40275   0.18509   102.12402
1595   0.07927   0.89642   -0.40260   0.18555   0.07927   0.89642   -0.40260   0.18555   102.02026
1596   0.07923   0.89642   -0.40367   0.18345   0.07923   0.89642   -0.40367   0.18345   102.11182
1597   0.07916   0.89660   -0.40312   0.18372   0.07916   0.89660   -0.40312   0.18372   102.14844
1598   0.07921   0.89685   -0.40217   0.18476   0.07921   0.89685   -0.40217   0.18476   102.07825
1599   0.07921   0.89657   -0.40254   0.18528   0.07921   0.89657   -0.40254   0.18528   102.01111
1600   0.07924   0.89642   -0.40324   0.18467   0.07924   0.89642   -0.40324   0.18467   102.11182
1601   0.07917   0.89654   -0.40294   0.18494   0.07917   0.89654   -0.40294   0.18494   102.16064
1602   0.07923   0.89712   -0.40104   0.18598   0.07923   0.89712   -0.40104   0.18598   102.00806
1603   0.07932   0.89703   -0.40184   0.18491   0.07932   0.89703   -0.40184   0.18491   101.95007
1604   0.07928   0.89584   -0.40416   0.18528   0.07928   0.89584   -0.40416   0.18528   102.11182
1605   0.07929   0.89581   -0.40452   0.18445   0.07929   0.89581   -0.40452   0.18445   102.12402
1606   0.07933   0.89657   -0.40269   0.18509   0.07933   0.89657   -0.40269   0.18509   102.02942
1607   0.07933   0.89633   -0.40297   0.18503   0.07933   0.89633   -0.40297   0.18503   102.05383
1608   0.07926   0.89612   -0.40330   0.18574   0.07926   0.89612   -0.40330   0.18574   102.12402
1609   0.07930   0.89642   -0.40349   0.18436   0.07930   0.89642   -0.40349   0.18436   102.12402
1610   0.07933   0.89578   -0.40403   0.18564   0.07933   0.89578   -0.40403   0.18564   102.05383
1611   0.07923   0.89630   -0.40361   0.18470   0.07923   0.89630   -0.40361   0.18470   102.06604
1612   0.07914   0.89651   -0.40306   0.18476   0.07914   0.89651   -0.40306   0.18476   102.11487
1613   0.07918   0.89596   -0.40370   0.18549   0.07918   0.89596   -0.40370   0.18549   102.06909
1614   0.07924   0.89599   -0.40394   0.18528   0.07924   0.89599   -0.40394   0.18528   102.05383
1615   0.07922   0.89602   -0.40403   0.18464   0.07922   0.89602   -0.40403   0.18464   102.11487
1616   0.07917   0.89633   -0.40284   0.18571   0.07917   0.89633   -0.40284   0.18571   102.12708
1617   0.07925   0.89657   -0.40278   0.18497   0.07925   0.89657   -0.40278   0.18497   102.03247
1618   0.07922   0.89645   -0.40233   0.18632   0.07922   0.89645   -0.40233   0.18632   102.09045
1619   0.07931   0.89663   -0.40236   0.18577   0.07931   0.89663   -0.40236   0.18577   102.08740
1620   0.07926   0.89612   -0.40358   0.18540   0.07926   0.89612   -0.40358   0.18540   102.09045
1621   0.07931   0.89648   -0.40333   0.18445   0.07931   0.89648   -0.40333   0.18445   102.05383
1622   0.07925   0.89688   -0.40220   0.18445   0.07925   0.89688   -0.40220   0.18445   102.11182
1623   0.07925   0.89642   -0.40336   0.18442   0.07925   0.89642   -0.40336   0.18442   102.14844
1624   0.07930   0.89627   -0.40342   0.18445   0.07930   0.89627   -0.40342   0.18445   102.05383
1625   0.07930   0.89666   -0.40281   0.18406   0.07930   0.89666   -0.40281   0.18406   102.06604
1626   0.07913   0.89666   -0.40318   0.18332   0.07913   0.89666   -0.40318   0.18332   102.11487
1627   0.07915   0.89651   -0.40303   0.18458   0.07915   0.89651   -0.40303   0.18458   102.13928
1628   0.07927   0.89654   -0.40287   0.18476   0.07927   0.89654   -0.40287   0.18476   102.00806
1629   0.07923   0.89636   -0.40284   0.18537   0.07923   0.89636   -0.40284   0.18537   102.07825
1630   0.07923   0.89660   -0.40205   0.18638   0.07923   0.89660   -0.40205   0.18638   102.16064
1631   0.07922   0.89715   -0.40165   0.18451   0.07922   0.89715   -0.40165   0.18451   102.07825
1632   0.07933   0.89639   -0.40287   0.18537   0.07933   0.89639   -0.40287   0.18537   102.04163
1633   0.07932   0.89615   -0.40385   0.18470   0.07932   0.89615   -0.40385   0.18470   102.06604
1634   0.07922   0.89624   -0.40324   0.18519   0.07922   0.89624   -0.40324   0.18519   102.13623
1635   0.07925   0.89618   -0.40333   0.18543   0.07925   0.89618   -0.40333   0.18543   102.09045
1636   0.07934   0.89657   -0.40254   0.18561   0.07934   0.89657   -0.40254   0.18561   101.99585
1637   0.07931   0.89651   -0.40242   0.18567   0.07931   0.89651   -0.40242   0.18567   102.05383
1638   0.07919   0.89676   -0.40205   0.18540   0.07919   0.89676   -0.40205   0.18540   102.11487
1639   0.07925   0.89697   -0.40172   0.18528   0.07925   0.89697   -0.40172   0.18528   102.00806
1640   0.07921   0.89639   -0.40327   0.18470   0.07921   0.89639   -0.40327   0.18470   102.01111
1641   0.07922   0.89608   -0.40437   0.18403   0.07922   0.89608   -0.40437   0.18403   102.10266
1642   0.07922   0.89605   -0.40388   0.18482   0.07922   0.89605   -0.40388   0.18482   102.10266
1643   0.07924   0.89615   -0.40324   0.18595   0.07924   0.89615   -0.40324   0.18595   102.03247
1644   0.07925   0.89697   -0.40190   0.18467   0.07925   0.89697   -0.40190   0.18467   102.03247
1645   0.07921   0.89657   -0.40223   0.18552   0.07921   0.89657   -0.40223   0.18552   102.11487
1646   0.07923   0.89657   -0.40242   0.18586   0.07923   0.89657   -0.40242   0.18586   102.04468
1647   0.07927   0.89608   -0.40382   0.18525   0.07927   0.89608   -0.40382   0.18525   102.04163
1648   0.07930   0.89630   -0.40300   0.18561   0.07930   0.89630   -0.40300   0.18561   102.05383
1649   0.07927   0.89679   -0.40233   0.18516   0.07927   0.89679   -0.40233   0.18516   102.05383
1650   0.07931   0.89636   -0.40263   0.18561   0.07931   0.89636   -0.40263   0.18561   102.02942
1651   0.07928   0.89584   -0.40388   0.18555   0.07928   0.89584   -0.40388   0.18555   102.06604
1652   0.07922   0.89712   -0.40132   0.18516   0.07922   0.89712   -0.40132   0.18516   102.07825
1653   0.07922   0.89642   -0.40321   0.18476   0.07922   0.89642   -0.40321   0.18476   102.13623
1654   0.07921   0.89627   -0.40281   0.18607   0.07921   0.89627   -0.40281   0.18607   102.03247
1655   0.07920   0.89627   -0.40309   0.18571   0.07920   0.89627   -0.40309   0.18571   102.10266
1656   0.07914   0.89630   -0.40345   0.18488   0.07914   0.89630   -0.40345   0.18488   102.12708
1657   0.07922   0.89624   -0.40294   0.18567   0.07922   0.89624   -0.40294   0.18567   102.10266
1658   0.07928   0.89657   -0.40229   0.18564   0.07928   0.89657   -0.40229   0.18564   101.99585
1659   0.07923   0.89627   -0.40324   0.18491   0.07923   0.89627   -0.40324   0.18491   102.11182
1660   0.07922   0.89624   -0.40376   0.18476   0.07922   0.89624   -0.40376   0.18476   102.14844
1661   0.07928   0.89642   -0.40294   0.18552   0.07928   0.89642   -0.40294   0.18552   102.03247
1662   0.07934   0.89633   -0.40291   0.18571   0.07934   0.89633   -0.40291   0.18571   102.04163
1663   0.07925   0.89682   -0.40248   0.18433   0.07925   0.89682   -0.40248   0.18433   102.09045
1664   0.07911   0.89612   -0.40367   0.18488   0.07911   0.89612   -0.40367   0.18488   102.16370
1665   0.07909   0.89621   -0.40321   0.18601   0.07909   0.89621   -0.40321   0.18601   102.03552
1666   0.07925   0.89666   -0.40220   0.18525   0.07925   0.89666   -0.40220   0.18525   102.03247
1667   0.07921   0.89621   -0.40330   0.18574   0.07921   0.89621   -0.40330   0.18574   102.12402
1668   0.07914   0.89621   -0.40355   0.18473   0.07914   0.89621   -0.40355   0.18473   102.13928
1669   0.07925   0.89596   -0.40379   0.18564   0.07925   0.89596   -0.40379   0.18564   102.03247
1670   0.07924   0.89624   -0.40385   0.18409   0.07924   0.89624   -0.40385   0.18409   102.06604
1671   0.07924   0.89605   -0.40425   0.18442   0.07924   0.89605   -0.40425   0.18442   102.15759
1672   0.07927   0.89633   -0.40300   0.18574   0.07927   0.89633   -0.40300   0.18574   102.04163
1673   0.07933   0.89615   -0.40333   0.18574   0.07933   0.89615   -0.40333   0.18574   102.04163
1674   0.07933   0.89660   -0.40269   0.18494   0.07933   0.89660   -0.40269   0.18494   102.02942
1675   0.07927   0.89648   -0.40272   0.18528   0.07927   0.89648   -0.40272   0.18528   102.13623
1676   0.07924   0.89596   -0.40367   0.18598   0.07924   0.89596   -0.40367   0.18598   102.12402
1677   0.07932   0.89630   -0.40266   0.18589   0.07932   0.89630   -0.40266   0.18589   102.04163
1678   0.07929   0.89612   -0.40367   0.18522   0.07929   0.89612   -0.40367   0.18522   102.08740
1679   0.07924   0.89676   -0.40202   0.18580   0.07924   0.89676   -0.40202   0.18580   102.07825
1680   0.07924   0.89590   -0.40422   0.18522   0.07924   0.89590   -0.40422   0.18522   102.04468
1681   0.07919   0.89615   -0.40370   0.18461   0.07919   0.89615   -0.40370   0.18461   102.05688
1682   0.07916   0.89557   -0.40474   0.18528   0.07916   0.89557   -0.40474   0.18528   102.14844
1683   0.07921   0.89612   -0.40333   0.18644   0.07921   0.89612   -0.40333   0.18644   102.14844
1684   0.07934   0.89581   -0.40382   0.18577   0.07934   0.89581   -0.40382   0.18577   102.05383
1685   0.07925   0.89608   -0.40367   0.18531   0.07925   0.89608   -0.40367   0.18531   102.05383
1686   0.07906   0.89590   -0.40400   0.18531   0.07906   0.89590   -0.40400   0.18531   102.13013
1687   0.07922   0.89599   -0.40397   0.18500   0.07922   0.89599   -0.40397   0.18500   102.05688
1688   0.07938   0.89630   -0.40257   0.18644   0.07938   0.89630   -0.40257   0.18644   102.00500
1689   0.07933   0.89584   -0.40373   0.18610   0.07933   0.89584   -0.40373   0.18610   102.11182
1690   0.07929   0.89596   -0.40410   0.18491   0.07929   0.89596   -0.40410   0.18491   102.05383
1691   0.07925   0.89621   -0.40300   0.18607   0.07925   0.89621   -0.40300   0.18607   102.04468
1692   0.07929   0.89572   -0.40416   0.18604   0.07929   0.89572   -0.40416   0.18604   102.02942
1693   0.07921   0.89578   -0.40425   0.18577   0.07921   0.89578   -0.40425   0.18577   102.16064
1694   0.07915   0.89599   -0.40361   0.18580   0.07915   0.89599   -0.40361   0.18580   102.13928
1695   0.07916   0.89554   -0.40422   0.18693   0.07916   0.89554   -0.40422   0.18693   101.99890
1696   0.07925   0.89569   -0.40486   0.18458   0.07925   0.89569   -0.40486   0.18458   102.00806
1697   0.07913   0.89563   -0.40513   0.18394   0.07913   0.89563   -0.40513   0.18394   102.15149
1698   0.07923   0.89584   -0.40480   0.18439   0.07923   0.89584   -0.40480   0.18439   102.06604
1699   0.07931   0.89605   -0.40345   0.18546   0.07931   0.89605   -0.40345   0.18546   102.04163
1700   0.07940   0.89541   -0.40535   0.18509   0.07940   0.89541   -0.40535   0.18509   102.08435
1701   0.07918   0.89566   -0.40452   0.18586   0.07918   0.89566   -0.40452   0.18586   102.18506
1702   0.07900   0.89566   -0.40474   0.18509   0.07900   0.89566   -0.40474   0.18509   102.07214
1703   0.07935   0.89557   -0.40407   0.18659   0.07935   0.89557   -0.40407   0.18659   102.04163
1704   0.07929   0.89538   -0.40535   0.18516   0.07929   0.89538   -0.40535   0.18516   102.09961
1705   0.07913   0.89578   -0.40382   0.18610   0.07913   0.89578   -0.40382   0.18610   102.15149
1706   0.07917   0.89563   -0.40461   0.18561   0.07917   0.89563   -0.40461   0.18561   102.03247
1707   0.07928   0.89532   -0.40507   0.18625   0.07928   0.89532   -0.40507   0.18625   102.05383
1708   0.07916   0.89566   -0.40449   0.18580   0.07916   0.89566   -0.40449   0.18580   102.08130
1709   0.07906   0.89526   -0.40553   0.18522   0.07906   0.89526   -0.40553   0.18522   102.14233
1710   0.07921   0.89578   -0.40419   0.18561   0.07921   0.89578   -0.40419   0.18561   102.05688
1711   0.07920   0.89547   -0.40529   0.18445   0.07920   0.89547   -0.40529   0.18445   102.05688
1712   0.07915   0.89526   -0.40507   0.18613   0.07915   0.89526   -0.40507   0.18613   102.11487
1713   0.07914   0.89575   -0.40483   0.18458   0.07914   0.89575   -0.40483   0.18458   102.08130
1714   0.07926   0.89529   -0.40574   0.18476   0.07926   0.89529   -0.40574   0.18476   102.04163
1715   0.07922   0.89489   -0.40648   0.18476   0.07922   0.89489   -0.40648   0.18476   102.09045
1716   0.07921   0.89529   -0.40568   0.18479   0.07921   0.89529   -0.40568   0.18479   102.13623
1717   0.07927   0.89517   -0.40529   0.18595   0.07927   0.89517   -0.40529   0.18595   102.05383
1718   0.07921   0.89529   -0.40501   0.18601   0.07921   0.89529   -0.40501   0.18601   102.10266
1719   0.07920   0.89517   -0.40547   0.18552   0.07920   0.89517   -0.40547   0.18552   102.13623
1720   0.07920   0.89489   -0.40629   0.18519   0.07920   0.89489   -0.40629   0.18519   102.13623
1721   0.07922   0.89547   -0.40486   0.18598   0.07922   0.89547   -0.40486   0.18598   102.03247
1722   0.07910   0.89505   -0.40614   0.18470   0.07910   0.89505   -0.40614   0.18470   102.10571
1723   0.07910   0.89578   -0.40468   0.18436   0.07910   0.89578   -0.40468   0.18436   102.12708
1724   0.07920   0.89496   -0.40562   0.18638   0.07920   0.89496   -0.40562   0.18638   102.05688
1725   0.07922   0.89547   -0.40492   0.18513   0.07922   0.89547   -0.40492   0.18513   102.03247
1726   0.07917   0.89520   -0.40562   0.18516   0.07917   0.89520   -0.40562   0.18516   102.13928
1727   0.07917   0.89492   -0.40648   0.18485   0.07917   0.89492   -0.40648   0.18485   102.14844
1728   0.07928   0.89535   -0.40513   0.18537   0.07928   0.89535   -0.40513   0.18537   102.04163
1729   0.07926   0.89511   -0.40596   0.18516   0.07926   0.89511   -0.40596   0.18516   102.02026
1730   0.07919   0.89508   -0.40632   0.18403   0.07919   0.89508   -0.40632   0.18403   102.13623
1731   0.07918   0.89517   -0.40596   0.18476   0.07918   0.89517   -0.40596   0.18476   102.20642
1732   0.07930   0.89502   -0.40602   0.18494   0.07930   0.89502   -0.40602   0.18494   102.02026
1733   0.07925   0.89544   -0.40541   0.18421   0.07925   0.89544   -0.40541   0.18421   102.07825
1734   0.07916   0.89529   -0.40577   0.18427   0.07916   0.89529   -0.40577   0.18427   102.14844
1735   0.07914   0.89505   -0.40605   0.18482   0.07914   0.89505   -0.40605   0.18482   102.13928
1736   0.07918   0.89480   -0.40672   0.18513   0.07918   0.89480   -0.40672   0.18513   102.03247
1737   0.07921   0.89508   -0.40660   0.18375   0.07921   0.89508   -0.40660   0.18375   102.04468
1738   0.07912   0.89523   -0.40620   0.18354   0.07912   0.89523   -0.40620   0.18354   102.20947
1739   0.07915   0.89538   -0.40535   0.18522   0.07915   0.89538   -0.40535   0.18522   102.10266
1740   0.07923   0.89554   -0.40596   0.18320   0.07923   0.89554   -0.40596   0.18320   101.98669
1741   0.07922   0.89541   -0.40577   0.18403   0.07922   0.89541   -0.40577   0.18403   102.09045
1742   0.07920   0.89560   -0.40501   0.18500   0.07920   0.89560   -0.40501   0.18500   102.10266
1743   0.07921   0.89538   -0.40529   0.18497   0.07921   0.89538   -0.40529   0.18497   102.10266
1744   0.07928   0.89535   -0.40641   0.18293   0.07928   0.89535   -0.40641   0.18293   102.04163
1745   0.07922   0.89496   -0.40657   0.18409   0.07922   0.89496   -0.40657   0.18409   102.16064
1746   0.07922   0.89471   -0.40739   0.18345   0.07922   0.89471   -0.40739   0.18345   102.16064
1747   0.07925   0.89499   -0.40602   0.18525   0.07925   0.89499   -0.40602   0.18525   102.07825
1748   0.07923   0.89566   -0.40553   0.18326   0.07923   0.89566   -0.40553   0.18326   102.11182
1749   0.07916   0.89557   -0.40480   0.18509   0.07916   0.89557   -0.40480   0.18509   102.12708
1750   0.07912   0.89602   -0.40443   0.18451   0.07912   0.89602   -0.40443   0.18451   102.04773
1751   0.07923   0.89520   -0.40623   0.18375   0.07923   0.89520   -0.40623   0.18375   102.06604
1752   0.07915   0.89547   -0.40565   0.18384   0.07915   0.89547   -0.40565   0.18384   102.08130
1753   0.07916   0.89532   -0.40608   0.18336   0.07916   0.89532   -0.40608   0.18336   102.17285
1754   0.07932   0.89502   -0.40608   0.18555   0.07932   0.89502   -0.40608   0.18555   102.05383
1755   0.07923   0.89560   -0.40504   0.18448   0.07923   0.89560   -0.40504   0.18448   102.11182
1756   0.07920   0.89615   -0.40468   0.18311   0.07920   0.89615   -0.40468   0.18311   102.10266
1757   0.07921   0.89532   -0.40629   0.18345   0.07921   0.89532   -0.40629   0.18345   102.18201
1758   0.07930   0.89532   -0.40544   0.18537   0.07930   0.89532   -0.40544   0.18537   102.04163
1759   0.07924   0.89526   -0.40602   0.18418   0.07924   0.89526   -0.40602   0.18418   102.13623
1760   0.07918   0.89489   -0.40721   0.18308   0.07918   0.89489   -0.40721   0.18308   102.16064
1761   0.07923   0.89514   -0.40623   0.18421   0.07923   0.89514   -0.40623   0.18421   102.11182
1762   0.07930   0.89514   -0.40669   0.18332   0.07930   0.89514   -0.40669   0.18332   101.98364
1763   0.07919   0.89560   -0.40648   0.18159   0.07919   0.89560   -0.40648   0.18159   102.05688
1764   0.07908   0.89566   -0.40529   0.18323   0.07908   0.89566   -0.40529   0.18323   102.18811
1765   0.07934   0.89526   -0.40654   0.18302   0.07934   0.89526   -0.40654   0.18302   102.06299
1766   0.07932   0.89535   -0.40596   0.18381   0.07932   0.89535   -0.40596   0.18381   102.04163
1767   0.07919   0.89569   -0.40574   0.18265   0.07919   0.89569   -0.40574   0.18265   102.11487
1768   0.07916   0.89538   -0.40638   0.18299   0.07916   0.89538   -0.40638   0.18299   102.13928
1769   0.07927   0.89480   -0.40748   0.18326   0.07927   0.89480   -0.40748   0.18326   102.06604
1770   0.07925   0.89489   -0.40690   0.18354   0.07925   0.89489   -0.40690   0.18354   102.04468
1771   0.07917   0.89572   -0.40605   0.18192   0.07917   0.89572   -0.40605   0.18192   102.16064
1772   0.07918   0.89572   -0.40562   0.18299   0.07918   0.89572   -0.40562   0.18299   102.16064
1773   0.07927   0.89560   -0.40541   0.18323   0.07927   0.89560   -0.40541   0.18323   102.09045
1774   0.07926   0.89550   -0.40623   0.18271   0.07926   0.89550   -0.40623   0.18271   102.05383
1775   0.07916   0.89596   -0.40504   0.18274   0.07916   0.89596   -0.40504   0.18274   102.14844
1776   0.07920   0.89508   -0.40672   0.18317   0.07920   0.89508   -0.40672   0.18317   102.10266
1777   0.07917   0.89572   -0.40544   0.18296   0.07917   0.89572   -0.40544   0.18296   102.06909
1778   0.07921   0.89578   -0.40455   0.18445   0.07921   0.89578   -0.40455   0.18445   102.11487
1779   0.07921   0.89569   -0.40590   0.18229   0.07921   0.89569   -0.40590   0.18229   102.10266
1780   0.07920   0.89529   -0.40617   0.18314   0.07920   0.89529   -0.40617   0.18314   102.07825
1781   0.07922   0.89569   -0.40571   0.18305   0.07922   0.89569   -0.40571   0.18305   102.06604
1782   0.07919   0.89563   -0.40577   0.18278   0.07919   0.89563   -0.40577   0.18278   102.13623
1783   0.07908   0.89578   -0.40544   0.18250   0.07908   0.89578   -0.40544   0.18250   102.13928
1784   0.07907   0.89526   -0.40544   0.18546   0.07907   0.89526   -0.40544   0.18546   102.05994
1785   0.07922   0.89532   -0.40547   0.18500   0.07922   0.89532   -0.40547   0.18500   102.12402
1786   0.07935   0.89480   -0.40742   0.18366   0.07935   0.89480   -0.40742   0.18366   102.14539
1787   0.07933   0.89486   -0.40690   0.18406   0.07933   0.89486   -0.40690   0.18406   102.11182
1788   0.07921   0.89502   -0.40715   0.18299   0.07921   0.89502   -0.40715   0.18299   102.07825
1789   0.07918   0.89511   -0.40706   0.18204   0.07918   0.89511   -0.40706   0.18204   102.16064
1790   0.07914   0.89480   -0.40803   0.18195   0.07914   0.89480   -0.40803   0.18195   102.18506
1791   0.07919   0.89517   -0.40770   0.18067   0.07919   0.89517   -0.40770   0.18067   102.03247
1792   0.07918   0.89544   -0.40635   0.18296   0.07918   0.89544   -0.40635   0.18296   102.08130
1793   0.07907   0.89554   -0.40690   0.18082   0.07907   0.89554   -0.40690   0.18082   102.16370
1794   0.07917   0.89529   -0.40706   0.18137   0.07917   0.89529   -0.40706   0.18137   102.13928
1795   0.07923   0.89511   -0.40693   0.18262   0.07923   0.89511   -0.40693   0.18262   102.04468
1796   0.07919   0.89489   -0.40761   0.18238   0.07919   0.89489   -0.40761   0.18238   102.12708
1797   0.07915   0.89465   -0.40843   0.18171   0.07915   0.89465   -0.40843   0.18171   102.17285
1798   0.07921   0.89508   -0.40806   0.18088   0.07921   0.89508   -0.40806   0.18088   102.14844
1799   0.07931   0.89477   -0.40770   0.18305   0.07931   0.89477   -0.40770   0.18305   102.02026
1800   0.07931   0.89471   -0.40837   0.18165   0.07931   0.89471   -0.40837   0.18165   102.11182
1801   0.07925   0.89480   -0.40788   0.18235   0.07925   0.89480   -0.40788   0.18235   102.19421
1802   0.07925   0.89373   -0.40925   0.18473   0.07925   0.89373   -0.40925   0.18473   102.09961
1803   0.07930   0.89447   -0.40840   0.18262   0.07930   0.89447   -0.40840   0.18262   102.04163
1804   0.07927   0.89471   -0.40791   0.18256   0.07927   0.89471   -0.40791   0.18256   102.11182
1805   0.07915   0.89489   -0.40764   0.18213   0.07915   0.89489   -0.40764   0.18213   102.18506
1806   0.07924   0.89462   -0.40803   0.18317   0.07924   0.89462   -0.40803   0.18317   102.07825
1807   0.07924   0.89496   -0.40715   0.18329   0.07924   0.89496   -0.40715   0.18329   102.07825
1808   0.07920   0.89535   -0.40712   0.18107   0.07920   0.89535   -0.40712   0.18107   102.16064
1809   0.07919   0.89477   -0.40785   0.18268   0.07919   0.89477   -0.40785   0.18268   102.18506
1810   0.07926   0.89520   -0.40620   0.18384   0.07926   0.89520   -0.40620   0.18384   102.06604
1811   0.07925   0.89444   -0.40822   0.18336   0.07925   0.89444   -0.40822   0.18336   102.07825
1812   0.07923   0.89450   -0.40852   0.18216   0.07923   0.89450   -0.40852   0.18216   102.12402
1813   0.07924   0.89496   -0.40709   0.18308   0.07924   0.89496   -0.40709   0.18308   102.14844
1814   0.07928   0.89422   -0.40819   0.18406   0.07928   0.89422   -0.40819   0.18406   102.12402
1815   0.07925   0.89468   -0.40815   0.18210   0.07925   0.89468   -0.40815   0.18210   102.09961
1816   0.07921   0.89434   -0.40794   0.18415   0.07921   0.89434   -0.40794   0.18415   102.14844
1817   0.07921   0.89541   -0.40629   0.18293   0.07921   0.89541   -0.40629   0.18293   102.12402
1818   0.07922   0.89483   -0.40712   0.18390   0.07922   0.89483   -0.40712   0.18390   102.07825
1819   0.07918   0.89514   -0.40745   0.18143   0.07918   0.89514   -0.40745   0.18143   102.08130
1820   0.07915   0.89492   -0.40721   0.18305   0.07915   0.89492   -0.40721   0.18305   102.15149
1821   0.07922   0.89508   -0.40623   0.18421   0.07922   0.89508   -0.40623   0.18421   102.05688
1822   0.07932   0.89508   -0.40593   0.18509   0.07932   0.89508   -0.40593   0.18509   102.12097
1823   0.07927   0.89450   -0.40764   0.18400   0.07927   0.89450   -0.40764   0.18400   102.18201
1824   0.07923   0.89428   -0.40782   0.18473   0.07923   0.89428   -0.40782   0.18473   102.11182
1825   0.07929   0.89459   -0.40800   0.18314   0.07929   0.89459   -0.40800   0.18314   102.09961
1826   0.07922   0.89492   -0.40751   0.18247   0.07922   0.89492   -0.40751   0.18247   102.12402
1827   0.07922   0.89492   -0.40699   0.18329   0.07922   0.89492   -0.40699   0.18329   102.14844
1828   0.07931   0.89489   -0.40733   0.18320   0.07931   0.89489   -0.40733   0.18320   102.07520
1829   0.07933   0.89483   -0.40654   0.18476   0.07933   0.89483   -0.40654   0.18476   102.02942
1830   0.07922   0.89489   -0.40776   0.18226   0.07922   0.89489   -0.40776   0.18226   102.12402
1831   0.07917   0.89456   -0.40791   0.18351   0.07917   0.89456   -0.40791   0.18351   102.18506
1832   0.07920   0.89508   -0.40657   0.18421   0.07920   0.89508   -0.40657   0.18421   102.03247
1833   0.07922   0.89499   -0.40739   0.18226   0.07922   0.89499   -0.40739   0.18226   102.07825
1834   0.07920   0.89453   -0.40834   0.18271   0.07920   0.89453   -0.40834   0.18271   102.13623
1835   0.07917   0.89453   -0.40837   0.18223   0.07917   0.89453   -0.40837   0.18223   102.14844
1836   0.07929   0.89480   -0.40699   0.18378   0.07929   0.89480   -0.40699   0.18378   102.04163
1837   0.07932   0.89496   -0.40751   0.18177   0.07932   0.89496   -0.40751   0.18177   102.05383
1838   0.07920   0.89499   -0.40709   0.18305   0.07920   0.89499   -0.40709   0.18305   102.16064
1839   0.07922   0.89483   -0.40739   0.18348   0.07922   0.89483   -0.40739   0.18348   102.13623
1840   0.07933   0.89462   -0.40757   0.18378   0.07933   0.89462   -0.40757   0.18378   102.06299
1841   0.07930   0.89477   -0.40764   0.18268   0.07930   0.89477   -0.40764   0.18268   102.09961
1842   0.07922   0.89550   -0.40605   0.18290   0.07922   0.89550   -0.40605   0.18290   102.13623
1843   0.07927   0.89499   -0.40632   0.18479   0.07927   0.89499   -0.40632   0.18479   102.12402
1844   0.07932   0.89499   -0.40748   0.18223   0.07932   0.89499   -0.40748   0.18223   102.02942
1845   0.07922   0.89480   -0.40791   0.18262   0.07922   0.89480   -0.40791   0.18262   102.06604
1846   0.07912   0.89499   -0.40736   0.18290   0.07912   0.89499   -0.40736   0.18290   102.15149
1847   0.07922   0.89483   -0.40770   0.18299   0.07922   0.89483   -0.40770   0.18299   102.07825
1848   0.07923   0.89477   -0.40733   0.18326   0.07923   0.89477   -0.40733   0.18326   102.11182
1849   0.07920   0.89456   -0.40779   0.18363   0.07920   0.89456   -0.40779   0.18363   102.10266
1850   0.07920   0.89480   -0.40730   0.18360   0.07920   0.89480   -0.40730   0.18360   102.13623
1851   0.07926   0.89477   -0.40715   0.18400   0.07926   0.89477   -0.40715   0.18400   102.09045
1852   0.07925   0.89465   -0.40800   0.18268   0.07925   0.89465   -0.40800   0.18268   102.09961
1853   0.07924   0.89459   -0.40803   0.18281   0.07924   0.89459   -0.40803   0.18281   102.13623
1854   0.07929   0.89502   -0.40699   0.18345   0.07929   0.89502   -0.40699   0.18345   102.08740
1855   0.07928   0.89511   -0.40715   0.18284   0.07928   0.89511   -0.40715   0.18284   102.05383
1856   0.07920   0.89529   -0.40645   0.18308   0.07920   0.89529   -0.40645   0.18308   102.13623
1857   0.07923   0.89462   -0.40776   0.18345   0.07923   0.89462   -0.40776   0.18345   102.16064
1858   0.07925   0.89474   -0.40733   0.18424   0.07925   0.89474   -0.40733   0.18424   102.07825
1859   0.07922   0.89511   -0.40721   0.18262   0.07922   0.89511   -0.40721   0.18262   102.05688
1860   0.07910   0.89486   -0.40754   0.18262   0.07910   0.89486   -0.40754   0.18262   102.13928
1861   0.07917   0.89459   -0.40794   0.18311   0.07917   0.89459   -0.40794   0.18311   102.14844
1862   0.07924   0.89499   -0.40687   0.18351   0.07924   0.89499   -0.40687   0.18351   102.02026
1863   0.07922   0.89517   -0.40660   0.18369   0.07922   0.89517   -0.40660   0.18369   102.09045
1864   0.07904   0.89511   -0.40736   0.18177   0.07904   0.89511   -0.40736   0.18177   102.18811
1865   0.07899   0.89550   -0.40620   0.18278   0.07899   0.89550   -0.40620   0.18278   102.09656
1866   0.07937   0.89465   -0.40724   0.18415   0.07937   0.89465   -0.40724   0.18415   102.00500
1867   0.07932   0.89483   -0.40706   0.18400   0.07932   0.89483   -0.40706   0.18400   102.14539
1868   0.07923   0.89468   -0.40791   0.18278   0.07923   0.89468   -0.40791   0.18278   102.16980
1869   0.07925   0.89529   -0.40611   0.18412   0.07925   0.89529   -0.40611   0.18412   102.05383
1870   0.07931   0.89477   -0.40745   0.18345   0.07931   0.89477   -0.40745   0.18345   102.06604
1871   0.07929   0.89489   -0.40709   0.18345   0.07929   0.89489   -0.40709   0.18345   102.14539
1872   0.07926   0.89520   -0.40638   0.18375   0.07926   0.89520   -0.40638   0.18375   102.16980
1873   0.07928   0.89526   -0.40629   0.18332   0.07928   0.89526   -0.40629   0.18332   102.06604
1874   0.07921   0.89492   -0.40693   0.18381   0.07921   0.89492   -0.40693   0.18381   102.05688
1875   0.07922   0.89517   -0.40690   0.18241   0.07922   0.89517   -0.40690   0.18241   102.17285
1876   0.07918   0.89520   -0.40693   0.18213   0.07918   0.89520   -0.40693   0.18213   102.13623
1877   0.07921   0.89538   -0.40510   0.18546   0.07921   0.89538   -0.40510   0.18546   102.07825
1878   0.07927   0.89566   -0.40626   0.18229   0.07927   0.89566   -0.40626   0.18229   102.03247
1879   0.07920   0.89538   -0.40635   0.18250   0.07920   0.89538   -0.40635   0.18250   102.17285
1880   0.07922   0.89502   -0.40651   0.18430   0.07922   0.89502   -0.40651   0.18430   102.12402
1881   0.07925   0.89441   -0.40828   0.18314   0.07925   0.89441   -0.40828   0.18314   102.07825
1882   0.07925   0.89541   -0.40666   0.18201   0.07925   0.89541   -0.40666   0.18201   102.11182
1883   0.07924   0.89486   -0.40693   0.18397   0.07924   0.89486   -0.40693   0.18397   102.19421
1884   0.07941   0.89471   -0.40712   0.18439   0.07941   0.89471   -0.40712   0.18439   102.12097
1885   0.07932   0.89529   -0.40651   0.18336   0.07932   0.89529   -0.40651   0.18336   102.07520
1886   0.07907   0.89532   -0.40669   0.18244   0.07907   0.89532   -0.40669   0.18244   102.08130
1887   0.07904   0.89547   -0.40675   0.18177   0.07904   0.89547   -0.40675   0.18177   102.07214
1888   0.07934   0.89477   -0.40718   0.18455   0.07934   0.89477   -0.40718   0.18455   102.07520
1889   0.07931   0.89508   -0.40684   0.18366   0.07931   0.89508   -0.40684   0.18366   102.12402
1890   0.07921   0.89511   -0.40699   0.18278   0.07921   0.89511   -0.40699   0.18278   102.13623
1891   0.07915   0.89544   -0.40641   0.18253   0.07915   0.89544   -0.40641   0.18253   102.10266
1892   0.07922   0.89511   -0.40641   0.18409   0.07922   0.89511   -0.40641   0.18409   102.12402
1893   0.07925   0.89572   -0.40571   0.18253   0.07925   0.89572   -0.40571   0.18253   102.14844
1894   0.07917   0.89557   -0.40580   0.18274   0.07917   0.89557   -0.40580   0.18274   102.18506
1895   0.07923   0.89554   -0.40584   0.18311   0.07923   0.89554   -0.40584   0.18311   102.11182
1896   0.07928   0.89550   -0.40620   0.18268   0.07928   0.89550   -0.40620   0.18268   102.06604
1897   0.07925   0.89544   -0.40565   0.18424   0.07925   0.89544   -0.40565   0.18424   102.12402
1898   0.07924   0.89560   -0.40638   0.18195   0.07924   0.89560   -0.40638   0.18195   102.16980
1899   0.07934   0.89496   -0.40638   0.18451   0.07934   0.89496   -0.40638   0.18451   102.01721
1900   0.07937   0.89486   -0.40687   0.18387   0.07937   0.89486   -0.40687   0.18387   102.09656
1901   0.07914   0.89535   -0.40645   0.18323   0.07914   0.89535   -0.40645   0.18323   102.13928
1902   0.07890   0.89532   -0.40681   0.18192   0.07890   0.89532   -0.40681   0.18192   102.16980
1903   0.07918   0.89477   -0.40693   0.18433   0.07918   0.89477   -0.40693   0.18433   102.08130
1904   0.07930   0.89544   -0.40550   0.18381   0.07930   0.89544   -0.40550   0.18381   102.11182
1905   0.07912   0.89508   -0.40651   0.18412   0.07912   0.89508   -0.40651   0.18412   102.16370
1906   0.07903   0.89499   -0.40699   0.18332   0.07903   0.89499   -0.40699   0.18332   102.13013
1907   0.07933   0.89499   -0.40596   0.18583   0.07933   0.89499   -0.40596   0.18583   102.04163
1908   0.07927   0.89520   -0.40559   0.18537   0.07927   0.89520   -0.40559   0.18537   102.07825
1909   0.07920   0.89526   -0.40550   0.18476   0.07920   0.89526   -0.40550   0.18476   102.18201
1910   0.07920   0.89505   -0.40666   0.18421   0.07920   0.89505   -0.40666   0.18421   102.11487
1911   0.07924   0.89538   -0.40641   0.18314   0.07924   0.89538   -0.40641   0.18314   102.03247
1912   0.07924   0.89502   -0.40620   0.18467   0.07924   0.89502   -0.40620   0.18467   102.07825
1913   0.07916   0.89514   -0.40571   0.18574   0.07916   0.89514   -0.40571   0.18574   102.13928
1914   0.07920   0.89474   -0.40632   0.18552   0.07920   0.89474   -0.40632   0.18552   102.10266
1915   0.07912   0.89434   -0.40727   0.18571   0.07912   0.89434   -0.40727   0.18571   102.05994
1916   0.07918   0.89599   -0.40394   0.18540   0.07918   0.89599   -0.40394   0.18540   102.09045
1917   0.07915   0.89508   -0.40541   0.18641   0.07915   0.89508   -0.40541   0.18641   102.13928
1918   0.07922   0.89599   -0.40361   0.18604   0.07922   0.89599   -0.40361   0.18604   102.03247
1919   0.07922   0.89612   -0.40342   0.18561   0.07922   0.89612   -0.40342   0.18561   102.09045
1920   0.07917   0.89575   -0.40477   0.18436   0.07917   0.89575   -0.40477   0.18436   102.11487
1921   0.07925   0.89596   -0.40483   0.18342   0.07925   0.89596   -0.40483   0.18342   102.07825
1922   0.07926   0.89615   -0.40397   0.18412   0.07926   0.89615   -0.40397   0.18412   102.06604
1923   0.07924   0.89630   -0.40413   0.18284   0.07924   0.89630   -0.40413   0.18284   102.12402
1924   0.07925   0.89602   -0.40443   0.18323   0.07925   0.89602   -0.40443   0.18323   102.09961
1925   0.07928   0.89615   -0.40394   0.18451   0.07928   0.89615   -0.40394   0.18451   102.03247
1926   0.07928   0.89636   -0.40373   0.18339   0.07928   0.89636   -0.40373   0.18339   102.05383
1927   0.07917   0.89612   -0.40428   0.18369   0.07917   0.89612   -0.40428   0.18369   102.17285
1928   0.07915   0.89630   -0.40388   0.18329   0.07915   0.89630   -0.40388   0.18329   102.11487
1929   0.07922   0.89621   -0.40419   0.18406   0.07922   0.89621   -0.40419   0.18406   102.00806
1930   0.07921   0.89639   -0.40413   0.18290   0.07921   0.89639   -0.40413   0.18290   102.06909
1931   0.07914   0.89605   -0.40461   0.18369   0.07914   0.89605   -0.40461   0.18369   102.16064
1932   0.07926   0.89615   -0.40358   0.18467   0.07926   0.89615   -0.40358   0.18467   102.09045
1933   0.07929   0.89669   -0.40339   0.18299   0.07929   0.89669   -0.40339   0.18299   102.02026
1934   0.07921   0.89642   -0.40291   0.18506   0.07921   0.89642   -0.40291   0.18506   102.12402
1935   0.07918   0.89602   -0.40440   0.18360   0.07918   0.89602   -0.40440   0.18360   102.18506
1936   0.07931   0.89621   -0.40345   0.18473   0.07931   0.89621   -0.40345   0.18473   102.06604
1937   0.07934   0.89624   -0.40397   0.18369   0.07934   0.89624   -0.40397   0.18369   102.02942
1938   0.07924   0.89578   -0.40461   0.18445   0.07924   0.89578   -0.40461   0.18445   102.12402
1939   0.07922   0.89621   -0.40419   0.18369   0.07922   0.89621   -0.40419   0.18369   102.13623
1940   0.07930   0.89584   -0.40440   0.18455   0.07930   0.89584   -0.40440   0.18455   102.05383
1941   0.07929   0.89627   -0.40400   0.18357   0.07929   0.89627   -0.40400   0.18357   102.02026
1942   0.07913   0.89578   -0.40440   0.18494   0.07913   0.89578   -0.40440   0.18494   102.16370
1943   0.07913   0.89605   -0.40413   0.18409   0.07913   0.89605   -0.40413   0.18409   102.13928
1944   0.07925   0.89621   -0.40355   0.18476   0.07925   0.89621   -0.40355   0.18476   102.04468
1945   0.07922   0.89605   -0.40440   0.18397   0.07922   0.89605   -0.40440   0.18397   102.06604
1946   0.07919   0.89660   -0.40352   0.18314   0.07919   0.89660   -0.40352   0.18314   102.12708
1947   0.07920   0.89615   -0.40413   0.18378   0.07920   0.89615   -0.40413   0.18378   102.12708
1948   0.07931   0.89575   -0.40504   0.18360   0.07931   0.89575   -0.40504   0.18360   102.04163
1949   0.07928   0.89612   -0.40410   0.18430   0.07928   0.89612   -0.40410   0.18430   102.08740
1950   0.07923   0.89633   -0.40407   0.18314   0.07923   0.89633   -0.40407   0.18314   102.14844
1951   0.07924   0.89630   -0.40358   0.18458   0.07924   0.89630   -0.40358   0.18458   102.07825
1952   0.07925   0.89599   -0.40419   0.18485   0.07925   0.89599   -0.40419   0.18485   102.09045
1953   0.07927   0.89563   -0.40504   0.18491   0.07927   0.89563   -0.40504   0.18491   102.13623
1954   0.07926   0.89599   -0.40480   0.18332   0.07926   0.89599   -0.40480   0.18332   102.09045
1955   0.07921   0.89587   -0.40431   0.18473   0.07921   0.89587   -0.40431   0.18473   102.05688
1956   0.07914   0.89651   -0.40330   0.18387   0.07914   0.89651   -0.40330   0.18387   102.12708
1957   0.07918   0.89645   -0.40403   0.18241   0.07918   0.89645   -0.40403   0.18241   102.14844
1958   0.07917   0.89566   -0.40501   0.18491   0.07917   0.89566   -0.40501   0.18491   102.08130
1959   0.07922   0.89578   -0.40413   0.18580   0.07922   0.89578   -0.40413   0.18580   102.06604
1960   0.07927   0.89566   -0.40413   0.18592   0.07927   0.89566   -0.40413   0.18592   102.14539
1961   0.07928   0.89636   -0.40300   0.18552   0.07928   0.89636   -0.40300   0.18552   102.15759
1962   0.07932   0.89624   -0.40379   0.18467   0.07932   0.89624   -0.40379   0.18467   102.02942
1963   0.07930   0.89612   -0.40336   0.18555   0.07930   0.89612   -0.40336   0.18555   102.05383
1964   0.07929   0.89633   -0.40330   0.18464   0.07929   0.89633   -0.40330   0.18464   102.09961
1965   0.07933   0.89612   -0.40373   0.18525   0.07933   0.89612   -0.40373   0.18525   102.13318
1966   0.07944   0.89691   -0.40175   0.18558   0.07944   0.89691   -0.40175   0.18558   101.95923
1967   0.07932   0.89587   -0.40416   0.18516   0.07932   0.89587   -0.40416   0.18516   102.06604
1968   0.07921   0.89645   -0.40339   0.18442   0.07921   0.89645   -0.40339   0.18442   102.12402
1969   0.07925   0.89663   -0.40266   0.18445   0.07925   0.89663   -0.40266   0.18445   102.11182
1970   0.07920   0.89633   -0.40352   0.18494   0.07920   0.89633   -0.40352   0.18494   102.02026
1971   0.07918   0.89642   -0.40281   0.18516   0.07918   0.89642   -0.40281   0.18516   102.09045
1972   0.07912   0.89630   -0.40419   0.18320   0.07912   0.89630   -0.40419   0.18320   102.17285
1973   0.07920   0.89612   -0.40324   0.18610   0.07920   0.89612   -0.40324   0.18610   102.09045
1974   0.07930   0.89584   -0.40464   0.18445   0.07930   0.89584   -0.40464   0.18445   102.00806
1975   0.07923   0.89630   -0.40330   0.18500   0.07923   0.89630   -0.40330   0.18500   102.04468
1976   0.07922   0.89599   -0.40403   0.18494   0.07922   0.89599   -0.40403   0.18494   102.11487
1977   0.07929   0.89605   -0.40379   0.18497   0.07929   0.89605   -0.40379   0.18497   102.06604
1978   0.07933   0.89608   -0.40452   0.18339   0.07933   0.89608   -0.40452   0.18339   102.01721
1979   0.07928   0.89627   -0.40336   0.18479   0.07928   0.89627   -0.40336   0.18479   102.09961
1980   0.07920   0.89627   -0.40300   0.18595   0.07920   0.89627   -0.40300   0.18595   102.14844
1981   0.07930   0.89618   -0.40355   0.18491   0.07930   0.89618   -0.40355   0.18491   102.02942
1982   0.07930   0.89627   -0.40391   0.18424   0.07930   0.89627   -0.40391   0.18424   102.05383
1983   0.07907   0.89639   -0.40391   0.18323   0.07907   0.89639   -0.40391   0.18323   102.08130
1984   0.07889   0.89663   -0.40281   0.18473   0.07889   0.89663   -0.40281   0.18473   102.08740
1985   0.07925   0.89605   -0.40269   0.18754   0.07925   0.89605   -0.40269   0.18754   102.09045
1986   0.07933   0.89599   -0.40318   0.18720   0.07933   0.89599   -0.40318   0.18720   102.08740
1987   0.07917   0.89612   -0.40349   0.18577   0.07917   0.89612   -0.40349   0.18577   102.09045
1988   0.07922   0.89566   -0.40333   0.18796   0.07922   0.89566   -0.40333   0.18796   102.07825
1989   0.07929   0.89605   -0.40281   0.18711   0.07929   0.89605   -0.40281   0.18711   102.08740
1990   0.07924   0.89599   -0.40370   0.18549   0.07924   0.89599   -0.40370   0.18549   102.10266
1991   0.07924   0.89621   -0.40321   0.18598   0.07924   0.89621   -0.40321   0.18598   102.12402
1992   0.07931   0.89651   -0.40233   0.18604   0.07931   0.89651   -0.40233   0.18604   101.98364
1993   0.07926   0.89648   -0.40327   0.18436   0.07926   0.89648   -0.40327   0.18436   102.04163
1994   0.07924   0.89618   -0.40309   0.18564   0.07924   0.89618   -0.40309   0.18564   102.14844
1995   0.07927   0.89636   -0.40275   0.18644   0.07927   0.89636   -0.40275   0.18644   102.06604
1996   0.07929   0.89624   -0.40257   0.18699   0.07929   0.89624   -0.40257   0.18699   102.00806
1997   0.07917   0.89630   -0.40367   0.18461   0.07917   0.89630   -0.40367   0.18461   102.08130
1998   0.07920   0.89596   -0.40333   0.18683   0.07920   0.89596   -0.40333   0.18683   102.14844
1999   0.07933   0.89569   -0.40303   0.18821   0.07933   0.89569   -0.40303   0.18821   102.05383
2000   0.07935   0.89633   -0.40330   0.18500   0.07935   0.89633   -0.40330   0.18500   102.00500
