Sampling rate: 10000.000 samples/sec
Screen size: 2000 samples
DOP average: 1 SOPsamples
Start time: 16:26:34 5/18/2021
Interval: 0.000100000 sec
(Waveform type: 1,3,4,5)
Index      S0(mW)      S1      S2      S3      S0(mW)      S1      S2      S3      DOP
1   0.07913   0.89673   -0.40394   0.18113   0.07913   0.89673   -0.40394   0.18113   102.04773
2   0.07909   0.89660   -0.40513   0.17951   0.07909   0.89660   -0.40513   0.17951   102.12708
3   0.07924   0.89642   -0.40443   0.18195   0.07924   0.89642   -0.40443   0.18195   102.07825
4   0.07929   0.89627   -0.40428   0.18287   0.07929   0.89627   -0.40428   0.18287   101.99585
5   0.07922   0.89630   -0.40532   0.18085   0.07922   0.89630   -0.40532   0.18085   102.06604
6   0.07918   0.89663   -0.40443   0.18082   0.07918   0.89663   -0.40443   0.18082   102.12708
7   0.07930   0.89630   -0.40376   0.18387   0.07930   0.89630   -0.40376   0.18387   102.04163
8   0.07933   0.89636   -0.40425   0.18238   0.07933   0.89636   -0.40425   0.18238   102.05383
9   0.07927   0.89673   -0.40275   0.18384   0.07927   0.89673   -0.40275   0.18384   102.09961
10   0.07930   0.89621   -0.40419   0.18360   0.07930   0.89621   -0.40419   0.18360   102.04163
11   0.07931   0.89618   -0.40410   0.18381   0.07931   0.89618   -0.40410   0.18381   102.04163
12   0.07930   0.89636   -0.40391   0.18302   0.07930   0.89636   -0.40391   0.18302   102.04163
13   0.07911   0.89669   -0.40431   0.18107   0.07911   0.89669   -0.40431   0.18107   102.08130
14   0.07919   0.89682   -0.40342   0.18226   0.07919   0.89682   -0.40342   0.18226   102.02332
15   0.07921   0.89703   -0.40400   0.17991   0.07921   0.89703   -0.40400   0.17991   101.99890
16   0.07917   0.89724   -0.40349   0.18015   0.07917   0.89724   -0.40349   0.18015   102.08130
17   0.07917   0.89746   -0.40294   0.18039   0.07917   0.89746   -0.40294   0.18039   102.05688
18   0.07921   0.89602   -0.40498   0.18207   0.07921   0.89602   -0.40498   0.18207   102.02026
19   0.07922   0.89734   -0.40358   0.17957   0.07922   0.89734   -0.40358   0.17957   102.02026
20   0.07918   0.89734   -0.40284   0.18110   0.07918   0.89734   -0.40284   0.18110   102.06909
21   0.07922   0.89688   -0.40291   0.18278   0.07922   0.89688   -0.40291   0.18278   102.06604
22   0.07926   0.89685   -0.40358   0.18155   0.07926   0.89685   -0.40358   0.18155   101.97449
23   0.07926   0.89676   -0.40425   0.18070   0.07926   0.89676   -0.40425   0.18070   102.06604
24   0.07921   0.89737   -0.40266   0.18110   0.07921   0.89737   -0.40266   0.18110   102.04468
25   0.07923   0.89758   -0.40214   0.18152   0.07923   0.89758   -0.40214   0.18152   101.95007
26   0.07921   0.89694   -0.40370   0.18116   0.07921   0.89694   -0.40370   0.18116   101.98669
27   0.07911   0.89703   -0.40251   0.18323   0.07911   0.89703   -0.40251   0.18323   102.09351
28   0.07923   0.89639   -0.40367   0.18351   0.07923   0.89639   -0.40367   0.18351   102.12402
29   0.07936   0.89642   -0.40339   0.18433   0.07936   0.89642   -0.40339   0.18433   102.01721
30   0.07925   0.89697   -0.40355   0.18155   0.07925   0.89697   -0.40355   0.18155   102.03247
31   0.07913   0.89752   -0.40254   0.18116   0.07913   0.89752   -0.40254   0.18116   102.06909
32   0.07919   0.89819   -0.40040   0.18226   0.07919   0.89819   -0.40040   0.18226   101.99890
33   0.07928   0.89746   -0.40184   0.18296   0.07928   0.89746   -0.40184   0.18296   101.92566
34   0.07923   0.89715   -0.40297   0.18204   0.07923   0.89715   -0.40297   0.18204   102.02026
35   0.07916   0.89706   -0.40278   0.18244   0.07916   0.89706   -0.40278   0.18244   102.08130
36   0.07926   0.89721   -0.40165   0.18427   0.07926   0.89721   -0.40165   0.18427   102.00806
37   0.07933   0.89721   -0.40162   0.18400   0.07933   0.89721   -0.40162   0.18400   101.97144
38   0.07927   0.89697   -0.40199   0.18503   0.07927   0.89697   -0.40199   0.18503   102.03247
39   0.07925   0.89700   -0.40214   0.18436   0.07925   0.89700   -0.40214   0.18436   102.06604
40   0.07927   0.89663   -0.40300   0.18369   0.07927   0.89663   -0.40300   0.18369   101.99585
41   0.07920   0.89715   -0.40217   0.18305   0.07920   0.89715   -0.40217   0.18305   102.01111
42   0.07922   0.89706   -0.40193   0.18455   0.07922   0.89706   -0.40193   0.18455   102.05688
43   0.07925   0.89694   -0.40223   0.18470   0.07925   0.89694   -0.40223   0.18470   102.02026
44   0.07927   0.89688   -0.40254   0.18381   0.07927   0.89688   -0.40254   0.18381   101.99585
45   0.07925   0.89703   -0.40214   0.18406   0.07925   0.89703   -0.40214   0.18406   102.06604
46   0.07917   0.89688   -0.40260   0.18351   0.07917   0.89688   -0.40260   0.18351   102.06909
47   0.07909   0.89682   -0.40281   0.18394   0.07909   0.89682   -0.40281   0.18394   102.00195
48   0.07926   0.89718   -0.40159   0.18473   0.07926   0.89718   -0.40159   0.18473   102.03247
49   0.07937   0.89666   -0.40269   0.18415   0.07937   0.89666   -0.40269   0.18415   102.09656
50   0.07929   0.89727   -0.40150   0.18433   0.07929   0.89727   -0.40150   0.18433   102.02942
51   0.07922   0.89700   -0.40254   0.18305   0.07922   0.89700   -0.40254   0.18305   101.96228
52   0.07922   0.89648   -0.40373   0.18256   0.07922   0.89648   -0.40373   0.18256   102.03247
53   0.07918   0.89740   -0.40242   0.18131   0.07918   0.89740   -0.40242   0.18131   102.08130
54   0.07921   0.89740   -0.40287   0.18043   0.07921   0.89740   -0.40287   0.18043   101.99890
55   0.07917   0.89734   -0.40245   0.18165   0.07917   0.89734   -0.40245   0.18165   101.98669
56   0.07913   0.89703   -0.40309   0.18177   0.07913   0.89703   -0.40309   0.18177   102.05688
57   0.07908   0.89752   -0.40220   0.18155   0.07908   0.89752   -0.40220   0.18155   102.10571
58   0.07923   0.89740   -0.40175   0.18311   0.07923   0.89740   -0.40175   0.18311   101.97449
59   0.07922   0.89715   -0.40239   0.18262   0.07922   0.89715   -0.40239   0.18262   101.97449
60   0.07924   0.89682   -0.40217   0.18455   0.07924   0.89682   -0.40217   0.18455   102.09045
61   0.07915   0.89795   -0.40117   0.18125   0.07915   0.89795   -0.40117   0.18125   102.08130
62   0.07929   0.89795   -0.40025   0.18363   0.07929   0.89795   -0.40025   0.18363   101.93787
63   0.07935   0.89740   -0.40153   0.18394   0.07935   0.89740   -0.40153   0.18394   101.98364
64   0.07924   0.89758   -0.40184   0.18168   0.07924   0.89758   -0.40184   0.18168   102.05383
65   0.07926   0.89816   -0.39985   0.18336   0.07926   0.89816   -0.39985   0.18336   101.96228
66   0.07932   0.89776   -0.40117   0.18229   0.07932   0.89776   -0.40117   0.18229   101.92566
67   0.07930   0.89737   -0.40168   0.18311   0.07930   0.89737   -0.40168   0.18311   101.99585
68   0.07913   0.89700   -0.40269   0.18290   0.07913   0.89700   -0.40269   0.18290   102.08130
69   0.07921   0.89810   -0.39937   0.18476   0.07921   0.89810   -0.39937   0.18476   101.99890
70   0.07922   0.89816   -0.40007   0.18259   0.07922   0.89816   -0.40007   0.18259   101.97449
71   0.07923   0.89761   -0.40181   0.18186   0.07923   0.89761   -0.40181   0.18186   102.04468
72   0.07925   0.89782   -0.40052   0.18332   0.07925   0.89782   -0.40052   0.18332   101.98669
73   0.07920   0.89746   -0.40144   0.18381   0.07920   0.89746   -0.40144   0.18381   102.02026
74   0.07924   0.89743   -0.40205   0.18162   0.07924   0.89743   -0.40205   0.18162   102.03247
75   0.07919   0.89792   -0.40043   0.18351   0.07919   0.89792   -0.40043   0.18351   102.05688
76   0.07928   0.89813   -0.39985   0.18357   0.07928   0.89813   -0.39985   0.18357   101.95007
77   0.07932   0.89731   -0.40114   0.18455   0.07932   0.89731   -0.40114   0.18455   101.99585
78   0.07924   0.89749   -0.40172   0.18256   0.07924   0.89749   -0.40172   0.18256   102.05383
79   0.07925   0.89761   -0.40162   0.18204   0.07925   0.89761   -0.40162   0.18204   102.04468
80   0.07924   0.89789   -0.40001   0.18415   0.07924   0.89789   -0.40001   0.18415   101.92871
81   0.07921   0.89785   -0.40132   0.18189   0.07921   0.89785   -0.40132   0.18189   101.98669
82   0.07910   0.89779   -0.40193   0.18110   0.07910   0.89779   -0.40193   0.18110   102.05994
83   0.07916   0.89846   -0.39943   0.18311   0.07916   0.89846   -0.39943   0.18311   101.97754
84   0.07921   0.89767   -0.40065   0.18381   0.07921   0.89767   -0.40065   0.18381   101.95313
85   0.07918   0.89721   -0.40233   0.18216   0.07918   0.89721   -0.40233   0.18216   102.03247
86   0.07915   0.89795   -0.40065   0.18253   0.07915   0.89795   -0.40065   0.18253   102.05688
87   0.07923   0.89840   -0.39982   0.18244   0.07923   0.89840   -0.39982   0.18244   101.95007
88   0.07928   0.89807   -0.39998   0.18314   0.07928   0.89807   -0.39998   0.18314   101.92566
89   0.07919   0.89715   -0.40266   0.18250   0.07919   0.89715   -0.40266   0.18250   102.05688
90   0.07917   0.89767   -0.40159   0.18229   0.07917   0.89767   -0.40159   0.18229   102.06909
91   0.07925   0.89740   -0.40187   0.18284   0.07925   0.89740   -0.40187   0.18284   101.99585
92   0.07927   0.89819   -0.39985   0.18363   0.07927   0.89819   -0.39985   0.18363   101.90430
93   0.07920   0.89801   -0.40144   0.18094   0.07920   0.89801   -0.40144   0.18094   102.05688
94   0.07915   0.89792   -0.40104   0.18226   0.07915   0.89792   -0.40104   0.18226   102.03552
95   0.07920   0.89801   -0.40028   0.18320   0.07920   0.89801   -0.40028   0.18320   101.97449
96   0.07918   0.89740   -0.40104   0.18467   0.07918   0.89740   -0.40104   0.18467   101.99890
97   0.07921   0.89810   -0.39964   0.18427   0.07921   0.89810   -0.39964   0.18427   102.05688
98   0.07915   0.89776   -0.40101   0.18259   0.07915   0.89776   -0.40101   0.18259   102.05688
99   0.07924   0.89807   -0.39982   0.18351   0.07924   0.89807   -0.39982   0.18351   101.96228
100   0.07920   0.89746   -0.40187   0.18244   0.07920   0.89746   -0.40187   0.18244   102.01111
101   0.07916   0.89746   -0.40156   0.18290   0.07916   0.89746   -0.40156   0.18290   102.03552
102   0.07923   0.89764   -0.40059   0.18424   0.07923   0.89764   -0.40059   0.18424   101.97449
103   0.07923   0.89776   -0.40028   0.18424   0.07923   0.89776   -0.40028   0.18424   101.97449
104   0.07921   0.89776   -0.40052   0.18332   0.07921   0.89776   -0.40052   0.18332   101.97449
105   0.07922   0.89758   -0.40153   0.18278   0.07922   0.89758   -0.40153   0.18278   102.00806
106   0.07925   0.89746   -0.40074   0.18497   0.07925   0.89746   -0.40074   0.18497   101.95007
107   0.07919   0.89828   -0.40016   0.18235   0.07919   0.89828   -0.40016   0.18235   101.97449
108   0.07917   0.89773   -0.40138   0.18223   0.07917   0.89773   -0.40138   0.18223   102.03247
109   0.07914   0.89764   -0.40104   0.18339   0.07914   0.89764   -0.40104   0.18339   101.96533
110   0.07920   0.89761   -0.40056   0.18427   0.07920   0.89761   -0.40056   0.18427   101.92871
111   0.07916   0.89779   -0.40031   0.18442   0.07916   0.89779   -0.40031   0.18442   101.98669
112   0.07917   0.89761   -0.40004   0.18564   0.07917   0.89761   -0.40004   0.18564   102.03247
113   0.07921   0.89792   -0.40037   0.18400   0.07921   0.89792   -0.40037   0.18400   101.91650
114   0.07925   0.89810   -0.39998   0.18323   0.07925   0.89810   -0.39998   0.18323   101.95007
115   0.07919   0.89792   -0.40095   0.18247   0.07919   0.89792   -0.40095   0.18247   102.06909
116   0.07919   0.89776   -0.40120   0.18265   0.07919   0.89776   -0.40120   0.18265   102.02332
117   0.07927   0.89804   -0.39967   0.18418   0.07927   0.89804   -0.39967   0.18418   101.91650
118   0.07924   0.89819   -0.40025   0.18198   0.07924   0.89819   -0.40025   0.18198   101.97449
119   0.07915   0.89795   -0.40101   0.18201   0.07915   0.89795   -0.40101   0.18201   102.05688
120   0.07924   0.89776   -0.40062   0.18357   0.07924   0.89776   -0.40062   0.18357   101.99585
121   0.07932   0.89798   -0.39967   0.18488   0.07932   0.89798   -0.39967   0.18488   101.89209
122   0.07927   0.89743   -0.40089   0.18424   0.07927   0.89743   -0.40089   0.18424   101.99585
123   0.07907   0.89862   -0.39952   0.18189   0.07907   0.89862   -0.39952   0.18189   102.05994
124   0.07915   0.89831   -0.39985   0.18256   0.07915   0.89831   -0.39985   0.18256   101.96533
125   0.07922   0.89804   -0.40046   0.18271   0.07922   0.89804   -0.40046   0.18271   101.91650
126   0.07919   0.89782   -0.39952   0.18552   0.07919   0.89782   -0.39952   0.18552   101.99890
127   0.07914   0.89718   -0.40211   0.18326   0.07914   0.89718   -0.40211   0.18326   102.08130
128   0.07908   0.89749   -0.40071   0.18497   0.07908   0.89749   -0.40071   0.18497   101.98975
129   0.07922   0.89773   -0.40074   0.18366   0.07922   0.89773   -0.40074   0.18366   101.95313
130   0.07929   0.89758   -0.40062   0.18458   0.07929   0.89758   -0.40062   0.18458   102.05383
131   0.07926   0.89776   -0.40138   0.18241   0.07926   0.89776   -0.40138   0.18241   102.03247
132   0.07927   0.89804   -0.39949   0.18430   0.07927   0.89804   -0.39949   0.18430   101.92871
133   0.07923   0.89789   -0.40049   0.18293   0.07923   0.89789   -0.40049   0.18293   102.03247
134   0.07922   0.89746   -0.40123   0.18406   0.07922   0.89746   -0.40123   0.18406   102.04468
135   0.07932   0.89758   -0.40016   0.18513   0.07932   0.89758   -0.40016   0.18513   101.98364
136   0.07932   0.89746   -0.40086   0.18445   0.07932   0.89746   -0.40086   0.18445   101.96228
137   0.07915   0.89755   -0.40202   0.18155   0.07915   0.89755   -0.40202   0.18155   102.02332
138   0.07922   0.89734   -0.40120   0.18424   0.07922   0.89734   -0.40120   0.18424   102.00806
139   0.07925   0.89819   -0.39970   0.18357   0.07925   0.89819   -0.39970   0.18357   101.91650
140   0.07924   0.89831   -0.39967   0.18290   0.07924   0.89831   -0.39967   0.18290   101.98669
141   0.07917   0.89816   -0.40019   0.18296   0.07917   0.89816   -0.40019   0.18296   102.03247
142   0.07922   0.89785   -0.40056   0.18323   0.07922   0.89785   -0.40056   0.18323   101.99890
143   0.07928   0.89755   -0.40098   0.18409   0.07928   0.89755   -0.40098   0.18409   101.95007
144   0.07925   0.89782   -0.40068   0.18326   0.07925   0.89782   -0.40068   0.18326   101.99585
145   0.07924   0.89700   -0.40159   0.18543   0.07924   0.89700   -0.40159   0.18543   102.09045
146   0.07939   0.89764   -0.39985   0.18546   0.07939   0.89764   -0.39985   0.18546   101.93481
147   0.07945   0.89792   -0.39976   0.18451   0.07945   0.89792   -0.39976   0.18451   101.91040
148   0.07929   0.89712   -0.40236   0.18305   0.07929   0.89712   -0.40236   0.18305   102.07825
149   0.07907   0.89776   -0.40165   0.18180   0.07907   0.89776   -0.40165   0.18180   102.04773
150   0.07920   0.89770   -0.40138   0.18262   0.07920   0.89770   -0.40138   0.18262   101.91650
151   0.07927   0.89770   -0.40065   0.18421   0.07927   0.89770   -0.40065   0.18421   101.97449
152   0.07925   0.89785   -0.40059   0.18372   0.07925   0.89785   -0.40059   0.18372   102.03247
153   0.07922   0.89798   -0.40043   0.18278   0.07922   0.89798   -0.40043   0.18278   102.00806
154   0.07925   0.89764   -0.40098   0.18357   0.07925   0.89764   -0.40098   0.18357   101.92871
155   0.07923   0.89743   -0.40114   0.18378   0.07923   0.89743   -0.40114   0.18378   102.00806
156   0.07922   0.89721   -0.40248   0.18268   0.07922   0.89721   -0.40248   0.18268   102.10266
157   0.07926   0.89727   -0.40187   0.18372   0.07926   0.89727   -0.40187   0.18372   102.03247
158   0.07927   0.89755   -0.40153   0.18308   0.07927   0.89755   -0.40153   0.18308   101.93787
159   0.07926   0.89734   -0.40120   0.18433   0.07926   0.89734   -0.40120   0.18433   101.99585
160   0.07921   0.89789   -0.40013   0.18403   0.07921   0.89789   -0.40013   0.18403   102.02026
161   0.07938   0.89761   -0.40022   0.18537   0.07938   0.89761   -0.40022   0.18537   101.94702
162   0.07933   0.89767   -0.40001   0.18516   0.07933   0.89767   -0.40001   0.18516   102.00806
163   0.07936   0.89721   -0.40199   0.18363   0.07936   0.89721   -0.40199   0.18363   102.04163
164   0.07922   0.89721   -0.40184   0.18369   0.07922   0.89721   -0.40184   0.18369   102.04468
165   0.07897   0.89724   -0.40248   0.18232   0.07897   0.89724   -0.40248   0.18232   101.96838
166   0.07907   0.89743   -0.40175   0.18256   0.07907   0.89743   -0.40175   0.18256   102.01416
167   0.07929   0.89819   -0.40010   0.18290   0.07929   0.89819   -0.40010   0.18290   102.00806
168   0.07926   0.89727   -0.40208   0.18271   0.07926   0.89727   -0.40208   0.18271   101.95007
169   0.07909   0.89700   -0.40248   0.18287   0.07909   0.89700   -0.40248   0.18287   102.03552
170   0.07916   0.89743   -0.40297   0.18088   0.07916   0.89743   -0.40297   0.18088   102.03552
171   0.07925   0.89669   -0.40318   0.18326   0.07925   0.89669   -0.40318   0.18326   102.07825
172   0.07929   0.89700   -0.40245   0.18342   0.07929   0.89700   -0.40245   0.18342   101.96228
173   0.07918   0.89718   -0.40251   0.18229   0.07918   0.89718   -0.40251   0.18229   102.05688
174   0.07918   0.89749   -0.40263   0.18116   0.07918   0.89749   -0.40263   0.18116   102.09045
175   0.07929   0.89700   -0.40251   0.18384   0.07929   0.89700   -0.40251   0.18384   102.02026
176   0.07931   0.89715   -0.40245   0.18265   0.07931   0.89715   -0.40245   0.18265   101.96228
177   0.07917   0.89697   -0.40345   0.18134   0.07917   0.89697   -0.40345   0.18134   102.06909
178   0.07907   0.89724   -0.40306   0.18101   0.07907   0.89724   -0.40306   0.18101   102.09351
179   0.07921   0.89703   -0.40272   0.18271   0.07921   0.89703   -0.40272   0.18271   101.96228
180   0.07921   0.89688   -0.40352   0.18223   0.07921   0.89688   -0.40352   0.18223   102.01111
181   0.07921   0.89685   -0.40303   0.18323   0.07921   0.89685   -0.40303   0.18323   102.09045
182   0.07922   0.89666   -0.40251   0.18488   0.07922   0.89666   -0.40251   0.18488   102.07825
183   0.07927   0.89727   -0.40168   0.18400   0.07927   0.89727   -0.40168   0.18400   101.91650
184   0.07928   0.89679   -0.40300   0.18360   0.07928   0.89679   -0.40300   0.18360   101.99585
185   0.07918   0.89679   -0.40315   0.18326   0.07918   0.89679   -0.40315   0.18326   102.10266
186   0.07922   0.89669   -0.40269   0.18439   0.07922   0.89669   -0.40269   0.18439   102.05688
187   0.07931   0.89691   -0.40306   0.18229   0.07931   0.89691   -0.40306   0.18229   101.97144
188   0.07927   0.89718   -0.40275   0.18198   0.07927   0.89718   -0.40275   0.18198   102.02026
189   0.07921   0.89688   -0.40339   0.18189   0.07921   0.89688   -0.40339   0.18189   102.10266
190   0.07925   0.89758   -0.40114   0.18363   0.07925   0.89758   -0.40114   0.18363   101.98669
191   0.07921   0.89709   -0.40275   0.18247   0.07921   0.89709   -0.40275   0.18247   101.99890
192   0.07913   0.89700   -0.40278   0.18271   0.07913   0.89700   -0.40278   0.18271   102.01111
193   0.07913   0.89654   -0.40352   0.18314   0.07913   0.89654   -0.40352   0.18314   102.08130
194   0.07920   0.89691   -0.40211   0.18430   0.07920   0.89691   -0.40211   0.18430   101.98669
195   0.07921   0.89676   -0.40312   0.18302   0.07921   0.89676   -0.40312   0.18302   102.02026
196   0.07919   0.89700   -0.40242   0.18378   0.07919   0.89700   -0.40242   0.18378   102.07825
197   0.07928   0.89651   -0.40324   0.18375   0.07928   0.89651   -0.40324   0.18375   102.05383
198   0.07931   0.89615   -0.40352   0.18531   0.07931   0.89615   -0.40352   0.18531   102.05383
199   0.07926   0.89627   -0.40361   0.18439   0.07926   0.89627   -0.40361   0.18439   102.07825
200   0.07926   0.89633   -0.40385   0.18342   0.07926   0.89633   -0.40385   0.18342   102.12402
201   0.07928   0.89660   -0.40373   0.18287   0.07928   0.89660   -0.40373   0.18287   101.99585
202   0.07928   0.89660   -0.40349   0.18311   0.07928   0.89660   -0.40349   0.18311   102.04163
203   0.07920   0.89682   -0.40349   0.18183   0.07920   0.89682   -0.40349   0.18183   102.11487
204   0.07921   0.89697   -0.40321   0.18180   0.07921   0.89697   -0.40321   0.18180   102.05688
205   0.07921   0.89703   -0.40217   0.18403   0.07921   0.89703   -0.40217   0.18403   101.96228
206   0.07912   0.89624   -0.40504   0.18131   0.07912   0.89624   -0.40504   0.18131   102.03552
207   0.07911   0.89654   -0.40464   0.18088   0.07911   0.89654   -0.40464   0.18088   102.10571
208   0.07913   0.89703   -0.40297   0.18220   0.07913   0.89703   -0.40297   0.18220   102.02332
209   0.07925   0.89657   -0.40309   0.18409   0.07925   0.89657   -0.40309   0.18409   101.98669
210   0.07922   0.89685   -0.40266   0.18400   0.07922   0.89685   -0.40266   0.18400   102.10266
211   0.07921   0.89602   -0.40446   0.18342   0.07921   0.89602   -0.40446   0.18342   102.12402
212   0.07931   0.89596   -0.40446   0.18387   0.07931   0.89596   -0.40446   0.18387   102.04163
213   0.07934   0.89612   -0.40449   0.18360   0.07934   0.89612   -0.40449   0.18360   101.98364
214   0.07928   0.89624   -0.40410   0.18354   0.07928   0.89624   -0.40410   0.18354   102.11182
215   0.07926   0.89630   -0.40428   0.18287   0.07926   0.89630   -0.40428   0.18287   102.09961
216   0.07934   0.89648   -0.40355   0.18372   0.07934   0.89648   -0.40355   0.18372   101.99585
217   0.07927   0.89679   -0.40373   0.18140   0.07927   0.89679   -0.40373   0.18140   102.03247
218   0.07922   0.89642   -0.40382   0.18351   0.07922   0.89642   -0.40382   0.18351   102.09045
219   0.07915   0.89694   -0.40367   0.18140   0.07915   0.89694   -0.40367   0.18140   102.04468
220   0.07920   0.89581   -0.40535   0.18259   0.07920   0.89581   -0.40535   0.18259   102.03247
221   0.07917   0.89627   -0.40492   0.18152   0.07917   0.89627   -0.40492   0.18152   102.04468
222   0.07913   0.89654   -0.40516   0.18030   0.07913   0.89654   -0.40516   0.18030   102.08130
223   0.07921   0.89645   -0.40431   0.18207   0.07921   0.89645   -0.40431   0.18207   102.03247
224   0.07922   0.89642   -0.40492   0.18058   0.07922   0.89642   -0.40492   0.18058   102.04468
225   0.07921   0.89700   -0.40388   0.18039   0.07921   0.89700   -0.40388   0.18039   102.07825
226   0.07922   0.89703   -0.40315   0.18165   0.07922   0.89703   -0.40315   0.18165   102.05688
227   0.07926   0.89682   -0.40352   0.18162   0.07926   0.89682   -0.40352   0.18162   102.04163
228   0.07931   0.89642   -0.40458   0.18122   0.07931   0.89642   -0.40458   0.18122   102.06604
229   0.07931   0.89679   -0.40373   0.18177   0.07931   0.89679   -0.40373   0.18177   102.11182
230   0.07932   0.89666   -0.40394   0.18223   0.07932   0.89666   -0.40394   0.18223   102.01721
231   0.07923   0.89679   -0.40397   0.18159   0.07923   0.89679   -0.40397   0.18159   101.98669
232   0.07913   0.89703   -0.40336   0.18155   0.07913   0.89703   -0.40336   0.18155   102.08130
233   0.07908   0.89669   -0.40431   0.18082   0.07908   0.89669   -0.40431   0.18082   102.13013
234   0.07916   0.89618   -0.40544   0.18085   0.07916   0.89618   -0.40544   0.18085   102.01111
235   0.07915   0.89630   -0.40541   0.18058   0.07915   0.89630   -0.40541   0.18058   102.06909
236   0.07908   0.89639   -0.40461   0.18165   0.07908   0.89639   -0.40461   0.18165   102.11792
237   0.07915   0.89648   -0.40489   0.18073   0.07915   0.89648   -0.40489   0.18073   102.05688
238   0.07924   0.89642   -0.40510   0.18039   0.07924   0.89642   -0.40510   0.18039   101.98669
239   0.07921   0.89709   -0.40425   0.17914   0.07921   0.89709   -0.40425   0.17914   102.03247
240   0.07915   0.89648   -0.40416   0.18250   0.07915   0.89648   -0.40416   0.18250   102.17285
241   0.07928   0.89584   -0.40516   0.18317   0.07928   0.89584   -0.40516   0.18317   102.05383
242   0.07933   0.89618   -0.40446   0.18278   0.07933   0.89618   -0.40446   0.18278   102.02942
243   0.07926   0.89624   -0.40510   0.18116   0.07926   0.89624   -0.40510   0.18116   102.12402
244   0.07920   0.89660   -0.40403   0.18189   0.07920   0.89660   -0.40403   0.18189   102.13623
245   0.07926   0.89605   -0.40461   0.18384   0.07926   0.89605   -0.40461   0.18384   102.00806
246   0.07912   0.89624   -0.40449   0.18226   0.07912   0.89624   -0.40449   0.18226   102.04773
247   0.07892   0.89618   -0.40516   0.18125   0.07892   0.89618   -0.40516   0.18125   102.08740
248   0.07917   0.89618   -0.40477   0.18265   0.07917   0.89618   -0.40477   0.18265   102.08130
249   0.07931   0.89599   -0.40443   0.18381   0.07931   0.89599   -0.40443   0.18381   102.02942
250   0.07924   0.89624   -0.40522   0.18146   0.07924   0.89624   -0.40522   0.18146   102.00806
251   0.07912   0.89630   -0.40501   0.18113   0.07912   0.89630   -0.40501   0.18113   102.13928
252   0.07924   0.89608   -0.40461   0.18274   0.07924   0.89608   -0.40461   0.18274   102.04468
253   0.07926   0.89673   -0.40522   0.17872   0.07926   0.89673   -0.40522   0.17872   102.04163
254   0.07920   0.89636   -0.40550   0.17978   0.07920   0.89636   -0.40550   0.17978   102.07825
255   0.07924   0.89550   -0.40584   0.18317   0.07924   0.89550   -0.40584   0.18317   102.11182
256   0.07929   0.89541   -0.40614   0.18302   0.07929   0.89541   -0.40614   0.18302   102.05383
257   0.07928   0.89599   -0.40547   0.18183   0.07928   0.89599   -0.40547   0.18183   102.09961
258   0.07921   0.89596   -0.40611   0.18006   0.07921   0.89596   -0.40611   0.18006   102.06909
259   0.07919   0.89608   -0.40556   0.18119   0.07919   0.89608   -0.40556   0.18119   102.06909
260   0.07920   0.89569   -0.40629   0.18125   0.07920   0.89569   -0.40629   0.18125   102.01111
261   0.07911   0.89627   -0.40571   0.17975   0.07911   0.89627   -0.40571   0.17975   102.06909
262   0.07922   0.89572   -0.40605   0.18177   0.07922   0.89572   -0.40605   0.18177   102.10266
263   0.07931   0.89605   -0.40513   0.18241   0.07931   0.89605   -0.40513   0.18241   102.00806
264   0.07927   0.89560   -0.40638   0.18107   0.07927   0.89560   -0.40638   0.18107   102.06604
265   0.07919   0.89569   -0.40687   0.18027   0.07919   0.89569   -0.40687   0.18027   102.10266
266   0.07914   0.89596   -0.40529   0.18210   0.07914   0.89596   -0.40529   0.18210   102.13928
267   0.07934   0.89660   -0.40483   0.18018   0.07934   0.89660   -0.40483   0.18018   101.93787
268   0.07933   0.89590   -0.40544   0.18235   0.07933   0.89590   -0.40544   0.18235   102.02942
269   0.07918   0.89581   -0.40651   0.18055   0.07918   0.89581   -0.40651   0.18055   102.12708
270   0.07919   0.89615   -0.40544   0.18146   0.07919   0.89615   -0.40544   0.18146   102.09045
271   0.07938   0.89581   -0.40593   0.18149   0.07938   0.89581   -0.40593   0.18149   101.95923
272   0.07923   0.89621   -0.40501   0.18204   0.07923   0.89621   -0.40501   0.18204   102.07825
273   0.07914   0.89618   -0.40553   0.18076   0.07914   0.89618   -0.40553   0.18076   102.10266
274   0.07913   0.89587   -0.40593   0.18134   0.07913   0.89587   -0.40593   0.18134   102.01111
275   0.07921   0.89608   -0.40565   0.18134   0.07921   0.89608   -0.40565   0.18134   101.98669
276   0.07917   0.89633   -0.40577   0.17963   0.07917   0.89633   -0.40577   0.17963   102.04468
277   0.07911   0.89624   -0.40568   0.17994   0.07911   0.89624   -0.40568   0.17994   102.11792
278   0.07918   0.89612   -0.40474   0.18232   0.07918   0.89612   -0.40474   0.18232   102.03247
279   0.07923   0.89581   -0.40641   0.18021   0.07923   0.89581   -0.40641   0.18021   102.03247
280   0.07918   0.89636   -0.40532   0.18061   0.07918   0.89636   -0.40532   0.18061   102.06909
281   0.07922   0.89615   -0.40565   0.18052   0.07922   0.89615   -0.40565   0.18052   102.10266
282   0.07927   0.89630   -0.40492   0.18177   0.07927   0.89630   -0.40492   0.18177   102.02026
283   0.07924   0.89654   -0.40474   0.18039   0.07924   0.89654   -0.40474   0.18039   102.04468
284   0.07919   0.89630   -0.40529   0.18064   0.07919   0.89630   -0.40529   0.18064   102.14844
285   0.07928   0.89605   -0.40611   0.18015   0.07928   0.89605   -0.40611   0.18015   102.03247
286   0.07922   0.89688   -0.40391   0.18097   0.07922   0.89688   -0.40391   0.18097   102.00806
287   0.07917   0.89688   -0.40461   0.17914   0.07917   0.89688   -0.40461   0.17914   102.09045
288   0.07913   0.89636   -0.40507   0.18076   0.07913   0.89636   -0.40507   0.18076   102.05688
289   0.07922   0.89624   -0.40498   0.18125   0.07922   0.89624   -0.40498   0.18125   101.97449
290   0.07919   0.89624   -0.40526   0.18097   0.07919   0.89624   -0.40526   0.18097   102.05688
291   0.07913   0.89618   -0.40571   0.18006   0.07913   0.89618   -0.40571   0.18006   102.10571
292   0.07922   0.89630   -0.40461   0.18229   0.07922   0.89630   -0.40461   0.18229   102.03247
293   0.07925   0.89612   -0.40559   0.18104   0.07925   0.89612   -0.40559   0.18104   101.98669
294   0.07918   0.89633   -0.40553   0.18024   0.07918   0.89633   -0.40553   0.18024   102.06909
295   0.07916   0.89605   -0.40596   0.18052   0.07916   0.89605   -0.40596   0.18052   102.12708
296   0.07929   0.89615   -0.40507   0.18198   0.07929   0.89615   -0.40507   0.18198   102.00806
297   0.07928   0.89612   -0.40495   0.18189   0.07928   0.89612   -0.40495   0.18189   102.03247
298   0.07922   0.89615   -0.40568   0.18070   0.07922   0.89615   -0.40568   0.18070   102.06604
299   0.07919   0.89633   -0.40532   0.18039   0.07919   0.89633   -0.40532   0.18039   102.06909
300   0.07928   0.89575   -0.40651   0.18030   0.07928   0.89575   -0.40651   0.18030   101.97449
301   0.07922   0.89541   -0.40715   0.18088   0.07922   0.89541   -0.40715   0.18088   102.04468
302   0.07905   0.89612   -0.40571   0.18043   0.07905   0.89612   -0.40571   0.18043   102.13013
303   0.07916   0.89599   -0.40452   0.18378   0.07916   0.89599   -0.40452   0.18378   102.11487
304   0.07926   0.89615   -0.40480   0.18287   0.07926   0.89615   -0.40480   0.18287   101.97449
305   0.07923   0.89581   -0.40559   0.18229   0.07923   0.89581   -0.40559   0.18229   102.06604
306   0.07915   0.89596   -0.40620   0.18055   0.07915   0.89596   -0.40620   0.18055   102.11487
307   0.07921   0.89569   -0.40559   0.18317   0.07921   0.89569   -0.40559   0.18317   102.03247
308   0.07928   0.89633   -0.40489   0.18131   0.07928   0.89633   -0.40489   0.18131   102.04163
309   0.07922   0.89645   -0.40535   0.18006   0.07922   0.89645   -0.40535   0.18006   102.04468
310   0.07921   0.89682   -0.40443   0.18046   0.07921   0.89682   -0.40443   0.18046   102.05688
311   0.07922   0.89621   -0.40489   0.18207   0.07922   0.89621   -0.40489   0.18207   102.02026
312   0.07924   0.89584   -0.40632   0.18046   0.07924   0.89584   -0.40632   0.18046   102.06604
313   0.07920   0.89599   -0.40602   0.18052   0.07920   0.89599   -0.40602   0.18052   102.06909
314   0.07913   0.89657   -0.40443   0.18073   0.07913   0.89657   -0.40443   0.18073   102.08130
315   0.07917   0.89593   -0.40559   0.18174   0.07917   0.89593   -0.40559   0.18174   102.04468
316   0.07914   0.89581   -0.40532   0.18305   0.07914   0.89581   -0.40532   0.18305   102.08130
317   0.07919   0.89599   -0.40526   0.18201   0.07919   0.89599   -0.40526   0.18201   102.10266
318   0.07918   0.89633   -0.40489   0.18125   0.07918   0.89633   -0.40489   0.18125   102.01111
319   0.07917   0.89676   -0.40376   0.18140   0.07917   0.89676   -0.40376   0.18140   102.01111
320   0.07913   0.89654   -0.40458   0.18122   0.07913   0.89654   -0.40458   0.18122   102.10571
321   0.07921   0.89624   -0.40516   0.18128   0.07921   0.89624   -0.40516   0.18128   102.09045
322   0.07925   0.89639   -0.40492   0.18119   0.07925   0.89639   -0.40492   0.18119   101.99585
323   0.07926   0.89593   -0.40483   0.18329   0.07926   0.89593   -0.40483   0.18329   102.11182
324   0.07923   0.89587   -0.40492   0.18311   0.07923   0.89587   -0.40492   0.18311   102.16064
325   0.07928   0.89572   -0.40510   0.18360   0.07928   0.89572   -0.40510   0.18360   102.06604
326   0.07933   0.89590   -0.40452   0.18433   0.07933   0.89590   -0.40452   0.18433   102.00806
327   0.07920   0.89660   -0.40489   0.17969   0.07920   0.89660   -0.40489   0.17969   102.06909
328   0.07900   0.89636   -0.40440   0.18244   0.07900   0.89636   -0.40440   0.18244   102.10876
329   0.07914   0.89651   -0.40419   0.18229   0.07914   0.89651   -0.40419   0.18229   101.97754
330   0.07929   0.89627   -0.40443   0.18302   0.07929   0.89627   -0.40443   0.18302   101.99585
331   0.07925   0.89599   -0.40513   0.18281   0.07925   0.89599   -0.40513   0.18281   102.09961
332   0.07919   0.89584   -0.40516   0.18329   0.07919   0.89584   -0.40516   0.18329   102.12708
333   0.07930   0.89584   -0.40535   0.18299   0.07930   0.89584   -0.40535   0.18299   102.00806
334   0.07928   0.89636   -0.40516   0.18043   0.07928   0.89636   -0.40516   0.18043   101.97449
335   0.07927   0.89648   -0.40519   0.18009   0.07927   0.89648   -0.40519   0.18009   102.09961
336   0.07930   0.89575   -0.40599   0.18149   0.07930   0.89575   -0.40599   0.18149   102.05383
337   0.07930   0.89636   -0.40474   0.18101   0.07930   0.89636   -0.40474   0.18101   102.02026
338   0.07929   0.89642   -0.40483   0.18085   0.07929   0.89642   -0.40483   0.18085   102.04163
339   0.07923   0.89669   -0.40428   0.18134   0.07923   0.89669   -0.40428   0.18134   102.11182
340   0.07928   0.89645   -0.40416   0.18238   0.07928   0.89645   -0.40416   0.18238   102.05383
341   0.07922   0.89608   -0.40526   0.18122   0.07922   0.89608   -0.40526   0.18122   102.04468
342   0.07922   0.89593   -0.40580   0.18067   0.07922   0.89593   -0.40580   0.18067   102.02026
343   0.07913   0.89654   -0.40391   0.18256   0.07913   0.89654   -0.40391   0.18256   102.06909
344   0.07920   0.89657   -0.40410   0.18207   0.07920   0.89657   -0.40410   0.18207   101.98669
345   0.07915   0.89663   -0.40452   0.18085   0.07915   0.89663   -0.40452   0.18085   102.06909
346   0.07921   0.89673   -0.40452   0.18058   0.07921   0.89673   -0.40452   0.18058   102.06909
347   0.07935   0.89636   -0.40422   0.18287   0.07935   0.89636   -0.40422   0.18287   101.99585
348   0.07926   0.89666   -0.40443   0.18070   0.07926   0.89666   -0.40443   0.18070   102.02026
349   0.07912   0.89654   -0.40468   0.18085   0.07912   0.89654   -0.40468   0.18085   102.06909
350   0.07918   0.89636   -0.40419   0.18278   0.07918   0.89636   -0.40419   0.18278   102.09045
351   0.07945   0.89612   -0.40419   0.18372   0.07945   0.89612   -0.40419   0.18372   102.00500
352   0.07943   0.89618   -0.40446   0.18354   0.07943   0.89618   -0.40446   0.18354   102.01721
353   0.07920   0.89676   -0.40361   0.18171   0.07920   0.89676   -0.40361   0.18171   102.09045
354   0.07918   0.89663   -0.40407   0.18177   0.07918   0.89663   -0.40407   0.18177   102.08130
355   0.07926   0.89645   -0.40446   0.18213   0.07926   0.89645   -0.40446   0.18213   101.97449
356   0.07920   0.89627   -0.40452   0.18207   0.07920   0.89627   -0.40452   0.18207   102.03247
357   0.07901   0.89657   -0.40452   0.18061   0.07901   0.89657   -0.40452   0.18061   102.14233
358   0.07915   0.89636   -0.40468   0.18162   0.07915   0.89636   -0.40468   0.18162   102.04468
359   0.07922   0.89633   -0.40455   0.18177   0.07922   0.89633   -0.40455   0.18177   101.96228
360   0.07920   0.89608   -0.40410   0.18415   0.07920   0.89608   -0.40410   0.18415   102.07825
361   0.07924   0.89615   -0.40443   0.18329   0.07924   0.89615   -0.40443   0.18329   102.12402
362   0.07928   0.89654   -0.40391   0.18262   0.07928   0.89654   -0.40391   0.18262   102.03247
363   0.07945   0.89688   -0.40349   0.18174   0.07945   0.89688   -0.40349   0.18174   101.95618
364   0.07920   0.89703   -0.40300   0.18201   0.07920   0.89703   -0.40300   0.18201   102.06909
365   0.07901   0.89608   -0.40431   0.18351   0.07901   0.89608   -0.40431   0.18351   102.09656
366   0.07925   0.89682   -0.40394   0.18146   0.07925   0.89682   -0.40394   0.18146   101.98669
367   0.07942   0.89660   -0.40345   0.18354   0.07942   0.89660   -0.40345   0.18354   102.01721
368   0.07915   0.89633   -0.40443   0.18229   0.07915   0.89633   -0.40443   0.18229   102.09351
369   0.07915   0.89633   -0.40400   0.18302   0.07915   0.89633   -0.40400   0.18302   102.02332
370   0.07913   0.89682   -0.40349   0.18247   0.07913   0.89682   -0.40349   0.18247   102.02332
371   0.07916   0.89688   -0.40413   0.18052   0.07916   0.89688   -0.40413   0.18052   102.03552
372   0.07912   0.89679   -0.40373   0.18143   0.07912   0.89679   -0.40373   0.18143   102.05994
373   0.07913   0.89651   -0.40397   0.18216   0.07913   0.89651   -0.40397   0.18216   102.04773
374   0.07914   0.89706   -0.40342   0.18119   0.07914   0.89706   -0.40342   0.18119   102.03552
375   0.07916   0.89697   -0.40327   0.18195   0.07916   0.89697   -0.40327   0.18195   102.05688
376   0.07921   0.89691   -0.40324   0.18250   0.07921   0.89691   -0.40324   0.18250   102.03247
377   0.07921   0.89673   -0.40309   0.18354   0.07921   0.89673   -0.40309   0.18354   102.01111
378   0.07920   0.89669   -0.40370   0.18192   0.07920   0.89669   -0.40370   0.18192   102.04468
379   0.07922   0.89663   -0.40309   0.18394   0.07922   0.89663   -0.40309   0.18394   102.09045
380   0.07931   0.89691   -0.40211   0.18476   0.07931   0.89691   -0.40211   0.18476   101.96228
381   0.07929   0.89706   -0.40214   0.18384   0.07929   0.89706   -0.40214   0.18384   102.00806
382   0.07920   0.89663   -0.40327   0.18387   0.07920   0.89663   -0.40327   0.18387   102.10266
383   0.07914   0.89706   -0.40318   0.18168   0.07914   0.89706   -0.40318   0.18168   102.06909
384   0.07920   0.89676   -0.40297   0.18375   0.07920   0.89676   -0.40297   0.18375   101.96228
385   0.07919   0.89691   -0.40333   0.18210   0.07919   0.89691   -0.40333   0.18210   102.01111
386   0.07913   0.89734   -0.40251   0.18195   0.07913   0.89734   -0.40251   0.18195   102.10571
387   0.07911   0.89724   -0.40269   0.18220   0.07911   0.89724   -0.40269   0.18220   102.03552
388   0.07926   0.89682   -0.40342   0.18168   0.07926   0.89682   -0.40342   0.18168   101.97449
389   0.07921   0.89715   -0.40245   0.18293   0.07921   0.89715   -0.40245   0.18293   102.04468
390   0.07917   0.89688   -0.40312   0.18226   0.07917   0.89688   -0.40312   0.18226   102.09045
391   0.07920   0.89679   -0.40306   0.18293   0.07920   0.89679   -0.40306   0.18293   102.05688
392   0.07926   0.89743   -0.40202   0.18238   0.07926   0.89743   -0.40202   0.18238   101.98669
393   0.07922   0.89743   -0.40205   0.18229   0.07922   0.89743   -0.40205   0.18229   102.00806
394   0.07919   0.89779   -0.40147   0.18213   0.07919   0.89779   -0.40147   0.18213   102.03247
395   0.07926   0.89712   -0.40251   0.18250   0.07926   0.89712   -0.40251   0.18250   102.00806
396   0.07924   0.89700   -0.40205   0.18409   0.07924   0.89700   -0.40205   0.18409   101.92871
397   0.07915   0.89703   -0.40284   0.18238   0.07915   0.89703   -0.40284   0.18238   102.06909
398   0.07907   0.89721   -0.40239   0.18281   0.07907   0.89721   -0.40239   0.18281   102.05994
399   0.07916   0.89727   -0.40245   0.18238   0.07916   0.89727   -0.40245   0.18238   101.99890
400   0.07920   0.89691   -0.40242   0.18384   0.07920   0.89691   -0.40242   0.18384   102.01111
401   0.07921   0.89697   -0.40153   0.18546   0.07921   0.89697   -0.40153   0.18546   102.04468
402   0.07919   0.89666   -0.40239   0.18546   0.07919   0.89666   -0.40239   0.18546   102.07825
403   0.07926   0.89724   -0.40141   0.18448   0.07926   0.89724   -0.40141   0.18448   102.00806
404   0.07930   0.89673   -0.40245   0.18461   0.07930   0.89673   -0.40245   0.18461   102.04163
405   0.07926   0.89691   -0.40165   0.18595   0.07926   0.89691   -0.40165   0.18595   102.06604
406   0.07926   0.89703   -0.40242   0.18357   0.07926   0.89703   -0.40242   0.18357   101.97449
407   0.07924   0.89746   -0.40251   0.18131   0.07924   0.89746   -0.40251   0.18131   102.00806
408   0.07926   0.89724   -0.40165   0.18430   0.07926   0.89724   -0.40165   0.18430   102.09045
409   0.07925   0.89727   -0.40083   0.18586   0.07925   0.89727   -0.40083   0.18586   102.00806
410   0.07927   0.89743   -0.40052   0.18567   0.07927   0.89743   -0.40052   0.18567   101.97449
411   0.07922   0.89679   -0.40190   0.18525   0.07922   0.89679   -0.40190   0.18525   102.06604
412   0.07909   0.89706   -0.40214   0.18369   0.07909   0.89706   -0.40214   0.18369   102.07214
413   0.07922   0.89706   -0.40205   0.18436   0.07922   0.89706   -0.40205   0.18436   101.97449
414   0.07923   0.89657   -0.40324   0.18381   0.07923   0.89657   -0.40324   0.18381   102.00806
415   0.07921   0.89764   -0.40132   0.18271   0.07921   0.89764   -0.40132   0.18271   102.02026
416   0.07914   0.89727   -0.40199   0.18314   0.07914   0.89727   -0.40199   0.18314   102.11487
417   0.07923   0.89718   -0.40193   0.18397   0.07923   0.89718   -0.40193   0.18397   101.97449
418   0.07925   0.89718   -0.40214   0.18332   0.07925   0.89718   -0.40214   0.18332   101.95007
419   0.07918   0.89685   -0.40278   0.18311   0.07918   0.89685   -0.40278   0.18311   102.09045
420   0.07921   0.89727   -0.40159   0.18384   0.07921   0.89727   -0.40159   0.18384   102.05688
421   0.07929   0.89712   -0.40172   0.18464   0.07929   0.89712   -0.40172   0.18464   101.97449
422   0.07930   0.89743   -0.40184   0.18296   0.07930   0.89743   -0.40184   0.18296   101.95007
423   0.07919   0.89685   -0.40309   0.18296   0.07919   0.89685   -0.40309   0.18296   102.10266
424   0.07919   0.89691   -0.40236   0.18458   0.07919   0.89691   -0.40236   0.18458   102.03247
425   0.07920   0.89721   -0.40184   0.18403   0.07920   0.89721   -0.40184   0.18403   101.90735
426   0.07918   0.89737   -0.40220   0.18195   0.07918   0.89737   -0.40220   0.18195   102.01111
427   0.07915   0.89758   -0.40153   0.18253   0.07915   0.89758   -0.40153   0.18253   102.05688
428   0.07932   0.89749   -0.40022   0.18574   0.07932   0.89749   -0.40022   0.18574   101.97144
429   0.07938   0.89731   -0.40107   0.18500   0.07938   0.89731   -0.40107   0.18500   101.97144
430   0.07921   0.89712   -0.40284   0.18186   0.07921   0.89712   -0.40284   0.18186   102.07825
431   0.07918   0.89752   -0.40159   0.18256   0.07918   0.89752   -0.40159   0.18256   102.05688
432   0.07926   0.89724   -0.40202   0.18293   0.07926   0.89724   -0.40202   0.18293   102.02026
433   0.07925   0.89727   -0.40199   0.18311   0.07925   0.89727   -0.40199   0.18311   102.00806
434   0.07922   0.89703   -0.40254   0.18308   0.07922   0.89703   -0.40254   0.18308   102.07825
435   0.07928   0.89743   -0.40086   0.18488   0.07928   0.89743   -0.40086   0.18488   102.00806
436   0.07928   0.89694   -0.40284   0.18317   0.07928   0.89694   -0.40284   0.18317   101.99585
437   0.07922   0.89743   -0.40168   0.18278   0.07922   0.89743   -0.40168   0.18278   102.00806
438   0.07916   0.89752   -0.40236   0.18143   0.07916   0.89752   -0.40236   0.18143   102.04468
439   0.07913   0.89758   -0.40150   0.18265   0.07913   0.89758   -0.40150   0.18265   101.97754
440   0.07914   0.89798   -0.40052   0.18308   0.07914   0.89798   -0.40052   0.18308   101.97754
441   0.07920   0.89727   -0.40196   0.18332   0.07920   0.89727   -0.40196   0.18332   102.06909
442   0.07920   0.89679   -0.40263   0.18424   0.07920   0.89679   -0.40263   0.18424   102.05688
443   0.07927   0.89737   -0.40095   0.18509   0.07927   0.89737   -0.40095   0.18509   101.97449
444   0.07927   0.89682   -0.40257   0.18384   0.07927   0.89682   -0.40257   0.18384   102.03247
445   0.07922   0.89660   -0.40269   0.18491   0.07922   0.89660   -0.40269   0.18491   102.11487
446   0.07917   0.89740   -0.40120   0.18467   0.07917   0.89740   -0.40120   0.18467   102.01111
447   0.07915   0.89782   -0.40019   0.18451   0.07915   0.89782   -0.40019   0.18451   101.90735
448   0.07926   0.89731   -0.40187   0.18329   0.07926   0.89731   -0.40187   0.18329   102.03247
449   0.07922   0.89743   -0.40208   0.18232   0.07922   0.89743   -0.40208   0.18232   102.10266
450   0.07925   0.89740   -0.40150   0.18357   0.07925   0.89740   -0.40150   0.18357   101.98669
451   0.07919   0.89764   -0.40144   0.18281   0.07919   0.89764   -0.40144   0.18281   101.91650
452   0.07914   0.89712   -0.40260   0.18226   0.07914   0.89712   -0.40260   0.18226   102.06909
453   0.07907   0.89767   -0.40168   0.18220   0.07907   0.89767   -0.40168   0.18220   102.07214
454   0.07921   0.89755   -0.40098   0.18400   0.07921   0.89755   -0.40098   0.18400   101.91650
455   0.07916   0.89724   -0.40236   0.18247   0.07916   0.89724   -0.40236   0.18247   101.97754
456   0.07909   0.89761   -0.40199   0.18146   0.07909   0.89761   -0.40199   0.18146   102.04773
457   0.07916   0.89712   -0.40254   0.18244   0.07916   0.89712   -0.40254   0.18244   102.06909
458   0.07926   0.89734   -0.40162   0.18369   0.07926   0.89734   -0.40162   0.18369   101.93787
459   0.07922   0.89746   -0.40126   0.18397   0.07922   0.89746   -0.40126   0.18397   101.99890
460   0.07919   0.89718   -0.40208   0.18336   0.07919   0.89718   -0.40208   0.18336   102.05688
461   0.07923   0.89755   -0.40120   0.18351   0.07923   0.89755   -0.40120   0.18351   101.99890
462   0.07925   0.89770   -0.40153   0.18247   0.07925   0.89770   -0.40153   0.18247   101.98669
463   0.07937   0.89755   -0.40135   0.18323   0.07937   0.89755   -0.40135   0.18323   102.00500
464   0.07930   0.89718   -0.40159   0.18394   0.07930   0.89718   -0.40159   0.18394   102.04163
465   0.07922   0.89642   -0.40413   0.18256   0.07922   0.89642   -0.40413   0.18256   102.04468
466   0.07917   0.89645   -0.40382   0.18274   0.07917   0.89645   -0.40382   0.18274   102.04468
467   0.07920   0.89718   -0.40156   0.18464   0.07920   0.89718   -0.40156   0.18464   102.02026
468   0.07926   0.89700   -0.40291   0.18278   0.07926   0.89700   -0.40291   0.18278   102.04163
469   0.07928   0.89734   -0.40229   0.18207   0.07928   0.89734   -0.40229   0.18207   101.99585
470   0.07923   0.89767   -0.40178   0.18134   0.07923   0.89767   -0.40178   0.18134   102.03247
471   0.07926   0.89767   -0.40175   0.18168   0.07926   0.89767   -0.40175   0.18168   102.02026
472   0.07930   0.89831   -0.39912   0.18412   0.07930   0.89831   -0.39912   0.18412   101.92566
473   0.07930   0.89749   -0.40205   0.18232   0.07930   0.89749   -0.40205   0.18232   102.02026
474   0.07922   0.89798   -0.40052   0.18296   0.07922   0.89798   -0.40052   0.18296   102.03247
475   0.07925   0.89782   -0.40098   0.18274   0.07925   0.89782   -0.40098   0.18274   102.05383
476   0.07932   0.89819   -0.39924   0.18470   0.07932   0.89819   -0.39924   0.18470   101.91345
477   0.07929   0.89770   -0.40043   0.18433   0.07929   0.89770   -0.40043   0.18433   101.96228
478   0.07922   0.89761   -0.40117   0.18372   0.07922   0.89761   -0.40117   0.18372   102.07825
479   0.07923   0.89721   -0.40184   0.18360   0.07923   0.89721   -0.40184   0.18360   102.04468
480   0.07924   0.89758   -0.40175   0.18253   0.07924   0.89758   -0.40175   0.18253   101.96228
481   0.07920   0.89785   -0.40110   0.18216   0.07920   0.89785   -0.40110   0.18216   102.01111
482   0.07918   0.89773   -0.40089   0.18375   0.07918   0.89773   -0.40089   0.18375   102.09045
483   0.07922   0.89813   -0.39991   0.18339   0.07922   0.89813   -0.39991   0.18339   101.97449
484   0.07930   0.89816   -0.40037   0.18278   0.07930   0.89816   -0.40037   0.18278   101.92566
485   0.07922   0.89779   -0.40147   0.18143   0.07922   0.89779   -0.40147   0.18143   102.03247
486   0.07921   0.89834   -0.40001   0.18192   0.07921   0.89834   -0.40001   0.18192   102.06909
487   0.07930   0.89850   -0.39943   0.18287   0.07930   0.89850   -0.39943   0.18287   101.96228
488   0.07930   0.89767   -0.40159   0.18201   0.07930   0.89767   -0.40159   0.18201   101.95007
489   0.07923   0.89804   -0.40138   0.18107   0.07923   0.89804   -0.40138   0.18107   102.02026
490   0.07923   0.89804   -0.40043   0.18326   0.07923   0.89804   -0.40043   0.18326   102.00806
491   0.07932   0.89770   -0.40120   0.18271   0.07932   0.89770   -0.40120   0.18271   101.95007
492   0.07929   0.89816   -0.40052   0.18216   0.07929   0.89816   -0.40052   0.18216   101.96228
493   0.07919   0.89816   -0.40043   0.18244   0.07919   0.89816   -0.40043   0.18244   102.01111
494   0.07916   0.89859   -0.39955   0.18216   0.07916   0.89859   -0.39955   0.18216   101.96533
495   0.07924   0.89731   -0.40144   0.18430   0.07924   0.89731   -0.40144   0.18430   101.98669
496   0.07924   0.89700   -0.40153   0.18488   0.07924   0.89700   -0.40153   0.18488   102.04468
497   0.07918   0.89804   -0.40040   0.18235   0.07918   0.89804   -0.40040   0.18235   102.04468
498   0.07925   0.89807   -0.40031   0.18302   0.07925   0.89807   -0.40031   0.18302   101.95007
499   0.07927   0.89792   -0.40098   0.18253   0.07927   0.89792   -0.40098   0.18253   101.97449
500   0.07922   0.89859   -0.39927   0.18256   0.07922   0.89859   -0.39927   0.18256   101.98669
501   0.07926   0.89846   -0.39909   0.18351   0.07926   0.89846   -0.39909   0.18351   101.89209
502   0.07931   0.89752   -0.40226   0.18171   0.07931   0.89752   -0.40226   0.18171   101.95007
503   0.07924   0.89755   -0.40168   0.18204   0.07924   0.89755   -0.40168   0.18204   102.04468
504   0.07922   0.89807   -0.40077   0.18229   0.07922   0.89807   -0.40077   0.18229   102.06604
505   0.07930   0.89798   -0.40004   0.18360   0.07930   0.89798   -0.40004   0.18360   101.93787
506   0.07928   0.89770   -0.40120   0.18259   0.07928   0.89770   -0.40120   0.18259   101.96228
507   0.07920   0.89779   -0.40110   0.18247   0.07920   0.89779   -0.40110   0.18247   102.05688
508   0.07909   0.89785   -0.40083   0.18238   0.07909   0.89785   -0.40083   0.18238   102.05994
509   0.07925   0.89816   -0.40028   0.18232   0.07925   0.89816   -0.40028   0.18232   101.92871
510   0.07919   0.89758   -0.40144   0.18287   0.07919   0.89758   -0.40144   0.18287   101.97449
511   0.07912   0.89727   -0.40223   0.18265   0.07912   0.89727   -0.40223   0.18265   102.06909
512   0.07922   0.89685   -0.40229   0.18448   0.07922   0.89685   -0.40229   0.18448   102.11487
513   0.07931   0.89776   -0.39964   0.18571   0.07931   0.89776   -0.39964   0.18571   101.93787
514   0.07922   0.89752   -0.40193   0.18201   0.07922   0.89752   -0.40193   0.18201   102.03247
515   0.07920   0.89795   -0.40126   0.18134   0.07920   0.89795   -0.40126   0.18134   102.09045
516   0.07930   0.89782   -0.39970   0.18528   0.07930   0.89782   -0.39970   0.18528   102.00806
517   0.07936   0.89718   -0.40147   0.18461   0.07936   0.89718   -0.40147   0.18461   101.94702
518   0.07931   0.89715   -0.40193   0.18436   0.07931   0.89715   -0.40193   0.18436   102.05383
519   0.07925   0.89700   -0.40248   0.18366   0.07925   0.89700   -0.40248   0.18366   102.09961
520   0.07932   0.89746   -0.40046   0.18552   0.07932   0.89746   -0.40046   0.18552   101.97144
521   0.07931   0.89746   -0.40141   0.18345   0.07931   0.89746   -0.40141   0.18345   101.95007
522   0.07917   0.89804   -0.40062   0.18220   0.07917   0.89804   -0.40062   0.18220   101.99890
523   0.07922   0.89801   -0.40110   0.18186   0.07922   0.89801   -0.40110   0.18186   101.98669
524   0.07926   0.89789   -0.40086   0.18235   0.07926   0.89789   -0.40086   0.18235   101.96228
525   0.07924   0.89831   -0.40046   0.18146   0.07924   0.89831   -0.40046   0.18146   101.97449
526   0.07922   0.89798   -0.40095   0.18159   0.07922   0.89798   -0.40095   0.18159   102.03247
527   0.07916   0.89819   -0.40013   0.18290   0.07916   0.89819   -0.40013   0.18290   101.97754
528   0.07910   0.89807   -0.39985   0.18390   0.07910   0.89807   -0.39985   0.18390   101.94397
529   0.07921   0.89789   -0.40083   0.18213   0.07921   0.89789   -0.40083   0.18213   102.06909
530   0.07937   0.89737   -0.40098   0.18436   0.07937   0.89737   -0.40098   0.18436   102.02942
531   0.07933   0.89840   -0.39995   0.18213   0.07933   0.89840   -0.39995   0.18213   101.90125
532   0.07928   0.89822   -0.40062   0.18192   0.07928   0.89822   -0.40062   0.18192   101.99585
533   0.07920   0.89810   -0.40062   0.18195   0.07920   0.89810   -0.40062   0.18195   102.04468
534   0.07925   0.89767   -0.40120   0.18305   0.07925   0.89767   -0.40120   0.18305   101.99585
535   0.07927   0.89816   -0.39991   0.18293   0.07927   0.89816   -0.39991   0.18293   101.93787
536   0.07919   0.89831   -0.40068   0.18110   0.07919   0.89831   -0.40068   0.18110   101.99890
537   0.07920   0.89758   -0.40223   0.18091   0.07920   0.89758   -0.40223   0.18091   102.07825
538   0.07922   0.89752   -0.40159   0.18271   0.07922   0.89752   -0.40159   0.18271   102.00806
539   0.07925   0.89834   -0.39964   0.18323   0.07925   0.89834   -0.39964   0.18323   101.95007
540   0.07922   0.89813   -0.40092   0.18104   0.07922   0.89813   -0.40092   0.18104   102.06604
541   0.07919   0.89816   -0.40025   0.18195   0.07919   0.89816   -0.40025   0.18195   102.04468
542   0.07929   0.89819   -0.39985   0.18290   0.07929   0.89819   -0.39985   0.18290   101.92566
543   0.07930   0.89840   -0.40013   0.18174   0.07930   0.89840   -0.40013   0.18174   101.93787
544   0.07917   0.89767   -0.40138   0.18284   0.07917   0.89767   -0.40138   0.18284   102.08130
545   0.07923   0.89792   -0.40062   0.18302   0.07923   0.89792   -0.40062   0.18302   102.02026
546   0.07932   0.89764   -0.40117   0.18354   0.07932   0.89764   -0.40117   0.18354   101.98364
547   0.07936   0.89752   -0.40126   0.18326   0.07936   0.89752   -0.40126   0.18326   101.98364
548   0.07921   0.89727   -0.40245   0.18204   0.07921   0.89727   -0.40245   0.18204   102.11487
549   0.07905   0.89718   -0.40159   0.18397   0.07905   0.89718   -0.40159   0.18397   102.02637
550   0.07919   0.89789   -0.40095   0.18259   0.07919   0.89789   -0.40095   0.18259   101.95313
551   0.07925   0.89779   -0.40181   0.18104   0.07925   0.89779   -0.40181   0.18104   102.03247
552   0.07928   0.89782   -0.40135   0.18149   0.07928   0.89782   -0.40135   0.18149   102.04163
553   0.07922   0.89721   -0.40245   0.18226   0.07922   0.89721   -0.40245   0.18226   102.02026
554   0.07920   0.89727   -0.40355   0.17991   0.07920   0.89727   -0.40355   0.17991   102.01111
555   0.07920   0.89727   -0.40315   0.18000   0.07920   0.89727   -0.40315   0.18000   102.05688
556   0.07927   0.89761   -0.40229   0.18079   0.07927   0.89761   -0.40229   0.18079   102.04163
557   0.07927   0.89700   -0.40327   0.18198   0.07927   0.89700   -0.40327   0.18198   102.03247
558   0.07923   0.89789   -0.40181   0.18052   0.07923   0.89789   -0.40181   0.18052   101.99890
559   0.07921   0.89749   -0.40306   0.17994   0.07921   0.89749   -0.40306   0.17994   102.04468
560   0.07926   0.89749   -0.40229   0.18152   0.07926   0.89749   -0.40229   0.18152   102.03247
561   0.07923   0.89700   -0.40315   0.18186   0.07923   0.89700   -0.40315   0.18186   102.04468
562   0.07916   0.89731   -0.40297   0.18091   0.07916   0.89731   -0.40297   0.18091   102.05688
563   0.07922   0.89721   -0.40281   0.18152   0.07922   0.89721   -0.40281   0.18152   102.03247
564   0.07919   0.89663   -0.40342   0.18345   0.07919   0.89663   -0.40342   0.18345   101.99890
565   0.07901   0.89727   -0.40211   0.18299   0.07901   0.89727   -0.40211   0.18299   102.02637
566   0.07913   0.89718   -0.40287   0.18180   0.07913   0.89718   -0.40287   0.18180   102.09351
567   0.07925   0.89685   -0.40236   0.18445   0.07925   0.89685   -0.40236   0.18445   102.04468
568   0.07921   0.89752   -0.40172   0.18207   0.07921   0.89752   -0.40172   0.18207   101.94092
569   0.07917   0.89669   -0.40281   0.18381   0.07917   0.89669   -0.40281   0.18381   102.05688
570   0.07916   0.89596   -0.40471   0.18339   0.07916   0.89596   -0.40471   0.18339   102.14844
571   0.07936   0.89648   -0.40391   0.18256   0.07936   0.89648   -0.40391   0.18256   102.02942
572   0.07933   0.89657   -0.40370   0.18287   0.07933   0.89657   -0.40370   0.18287   102.00806
573   0.07923   0.89676   -0.40312   0.18308   0.07923   0.89676   -0.40312   0.18308   102.11182
574   0.07924   0.89679   -0.40306   0.18336   0.07924   0.89679   -0.40306   0.18336   102.11182
575   0.07932   0.89682   -0.40394   0.18131   0.07932   0.89682   -0.40394   0.18131   102.04163
576   0.07922   0.89605   -0.40587   0.18097   0.07922   0.89605   -0.40587   0.18097   101.97449
577   0.07910   0.89599   -0.40501   0.18232   0.07910   0.89599   -0.40501   0.18232   102.13928
578   0.07918   0.89563   -0.40492   0.18436   0.07918   0.89563   -0.40492   0.18436   102.10266
579   0.07926   0.89547   -0.40614   0.18281   0.07926   0.89547   -0.40614   0.18281   102.03247
580   0.07922   0.89575   -0.40538   0.18259   0.07922   0.89575   -0.40538   0.18259   102.06604
581   0.07916   0.89575   -0.40535   0.18290   0.07916   0.89575   -0.40535   0.18290   102.12708
582   0.07923   0.89547   -0.40590   0.18369   0.07923   0.89547   -0.40590   0.18369   102.05383
583   0.07927   0.89593   -0.40510   0.18308   0.07927   0.89593   -0.40510   0.18308   102.02026
584   0.07922   0.89657   -0.40489   0.18058   0.07922   0.89657   -0.40489   0.18058   102.04468
585   0.07924   0.89618   -0.40559   0.18067   0.07924   0.89618   -0.40559   0.18067   102.07825
586   0.07923   0.89593   -0.40571   0.18159   0.07923   0.89593   -0.40571   0.18159   102.04468
587   0.07922   0.89660   -0.40501   0.17997   0.07922   0.89660   -0.40501   0.17997   102.06604
588   0.07916   0.89618   -0.40574   0.18036   0.07916   0.89618   -0.40574   0.18036   102.06909
589   0.07923   0.89648   -0.40324   0.18445   0.07923   0.89648   -0.40324   0.18445   102.06604
590   0.07920   0.89660   -0.40349   0.18302   0.07920   0.89660   -0.40349   0.18302   102.02026
591   0.07915   0.89575   -0.40550   0.18311   0.07915   0.89575   -0.40550   0.18311   102.10266
592   0.07919   0.89563   -0.40599   0.18241   0.07919   0.89563   -0.40599   0.18241   102.09045
593   0.07925   0.89639   -0.40358   0.18436   0.07925   0.89639   -0.40358   0.18436   102.00806
594   0.07925   0.89706   -0.40281   0.18278   0.07925   0.89706   -0.40281   0.18278   102.04468
595   0.07918   0.89630   -0.40364   0.18427   0.07918   0.89630   -0.40364   0.18427   102.10266
596   0.07925   0.89627   -0.40437   0.18284   0.07925   0.89627   -0.40437   0.18284   102.07825
597   0.07932   0.89605   -0.40410   0.18387   0.07932   0.89605   -0.40410   0.18387   102.01721
598   0.07933   0.89615   -0.40446   0.18308   0.07933   0.89615   -0.40446   0.18308   102.02942
599   0.07925   0.89642   -0.40449   0.18189   0.07925   0.89642   -0.40449   0.18189   102.13623
600   0.07923   0.89599   -0.40562   0.18168   0.07923   0.89599   -0.40562   0.18168   102.04468
601   0.07933   0.89593   -0.40495   0.18281   0.07933   0.89593   -0.40495   0.18281   101.98364
602   0.07922   0.89587   -0.40614   0.18101   0.07922   0.89587   -0.40614   0.18101   102.06604
603   0.07913   0.89651   -0.40498   0.18064   0.07913   0.89651   -0.40498   0.18064   102.11487
604   0.07912   0.89660   -0.40431   0.18094   0.07912   0.89660   -0.40431   0.18094   102.04773
605   0.07919   0.89608   -0.40513   0.18140   0.07919   0.89608   -0.40513   0.18140   102.01111
606   0.07914   0.89657   -0.40458   0.18088   0.07914   0.89657   -0.40458   0.18088   102.06909
607   0.07913   0.89639   -0.40461   0.18137   0.07913   0.89639   -0.40461   0.18137   102.10571
608   0.07918   0.89660   -0.40495   0.18024   0.07918   0.89660   -0.40495   0.18024   102.02332
609   0.07919   0.89599   -0.40593   0.18061   0.07919   0.89599   -0.40593   0.18061   102.01111
610   0.07923   0.89618   -0.40559   0.18027   0.07923   0.89618   -0.40559   0.18027   102.10266
611   0.07921   0.89596   -0.40489   0.18308   0.07921   0.89596   -0.40489   0.18308   102.11487
612   0.07927   0.89630   -0.40382   0.18427   0.07927   0.89630   -0.40382   0.18427   102.00806
613   0.07927   0.89618   -0.40483   0.18232   0.07927   0.89618   -0.40483   0.18232   102.06604
614   0.07925   0.89554   -0.40541   0.18397   0.07925   0.89554   -0.40541   0.18397   102.11182
615   0.07932   0.89563   -0.40538   0.18351   0.07932   0.89563   -0.40538   0.18351   102.04163
616   0.07930   0.89660   -0.40425   0.18177   0.07930   0.89660   -0.40425   0.18177   101.99585
617   0.07924   0.89645   -0.40437   0.18226   0.07924   0.89645   -0.40437   0.18226   102.09045
618   0.07915   0.89618   -0.40407   0.18384   0.07915   0.89618   -0.40407   0.18384   102.06909
619   0.07924   0.89596   -0.40492   0.18311   0.07924   0.89596   -0.40492   0.18311   102.03247
620   0.07921   0.89590   -0.40498   0.18342   0.07921   0.89590   -0.40498   0.18342   102.06909
621   0.07920   0.89618   -0.40498   0.18204   0.07920   0.89618   -0.40498   0.18204   102.12708
622   0.07923   0.89648   -0.40364   0.18375   0.07923   0.89648   -0.40364   0.18375   102.04468
623   0.07930   0.89593   -0.40495   0.18281   0.07930   0.89593   -0.40495   0.18281   102.02942
624   0.07928   0.89618   -0.40443   0.18314   0.07928   0.89618   -0.40443   0.18314   102.07825
625   0.07920   0.89669   -0.40397   0.18180   0.07920   0.89669   -0.40397   0.18180   102.09045
626   0.07932   0.89624   -0.40486   0.18162   0.07932   0.89624   -0.40486   0.18162   101.97144
627   0.07929   0.89612   -0.40553   0.18082   0.07929   0.89612   -0.40553   0.18082   102.00806
628   0.07930   0.89657   -0.40455   0.18079   0.07930   0.89657   -0.40455   0.18079   102.07825
629   0.07929   0.89624   -0.40489   0.18159   0.07929   0.89624   -0.40489   0.18159   102.09961
630   0.07928   0.89651   -0.40455   0.18094   0.07928   0.89651   -0.40455   0.18094   102.03247
631   0.07915   0.89666   -0.40437   0.18064   0.07915   0.89666   -0.40437   0.18064   102.05688
632   0.07909   0.89605   -0.40635   0.17978   0.07909   0.89605   -0.40635   0.17978   102.15149
633   0.07922   0.89651   -0.40501   0.18018   0.07922   0.89651   -0.40501   0.18018   102.02026
634   0.07921   0.89584   -0.40596   0.18143   0.07921   0.89584   -0.40596   0.18143   101.97449
635   0.07916   0.89621   -0.40571   0.18000   0.07916   0.89621   -0.40571   0.18000   102.05688
636   0.07913   0.89593   -0.40498   0.18287   0.07913   0.89593   -0.40498   0.18287   102.13928
637   0.07925   0.89569   -0.40574   0.18305   0.07925   0.89569   -0.40574   0.18305   102.02026
638   0.07926   0.89572   -0.40577   0.18189   0.07926   0.89572   -0.40577   0.18189   101.99585
639   0.07918   0.89642   -0.40522   0.18039   0.07918   0.89642   -0.40522   0.18039   102.06909
640   0.07917   0.89612   -0.40568   0.18049   0.07917   0.89612   -0.40568   0.18049   102.13928
641   0.07924   0.89630   -0.40513   0.18113   0.07924   0.89630   -0.40513   0.18113   102.05383
642   0.07923   0.89612   -0.40590   0.18046   0.07923   0.89612   -0.40590   0.18046   102.03247
643   0.07914   0.89608   -0.40574   0.18043   0.07914   0.89608   -0.40574   0.18043   102.15149
644   0.07914   0.89593   -0.40593   0.18134   0.07914   0.89593   -0.40593   0.18134   102.06909
645   0.07922   0.89593   -0.40522   0.18213   0.07922   0.89593   -0.40522   0.18213   102.02026
646   0.07907   0.89590   -0.40556   0.18235   0.07907   0.89590   -0.40556   0.18235   102.03552
647   0.07894   0.89639   -0.40486   0.18159   0.07894   0.89639   -0.40486   0.18159   102.07520
648   0.07922   0.89615   -0.40428   0.18345   0.07922   0.89615   -0.40428   0.18345   102.02026
649   0.07933   0.89605   -0.40507   0.18262   0.07933   0.89605   -0.40507   0.18262   102.04163
650   0.07916   0.89630   -0.40577   0.17978   0.07916   0.89630   -0.40577   0.17978   102.05688
651   0.07911   0.89612   -0.40584   0.18058   0.07911   0.89612   -0.40584   0.18058   102.05994
652   0.07923   0.89599   -0.40608   0.18039   0.07923   0.89599   -0.40608   0.18039   102.00806
653   0.07930   0.89590   -0.40526   0.18293   0.07930   0.89590   -0.40526   0.18293   102.05383
654   0.07922   0.89645   -0.40519   0.17978   0.07922   0.89645   -0.40519   0.17978   102.10266
655   0.07919   0.89581   -0.40596   0.18107   0.07919   0.89581   -0.40596   0.18107   102.05688
656   0.07922   0.89599   -0.40553   0.18131   0.07922   0.89599   -0.40553   0.18131   102.03247
657   0.07917   0.89624   -0.40577   0.18024   0.07917   0.89624   -0.40577   0.18024   102.09045
658   0.07914   0.89572   -0.40577   0.18244   0.07914   0.89572   -0.40577   0.18244   102.10266
659   0.07915   0.89596   -0.40641   0.18018   0.07915   0.89596   -0.40641   0.18018   101.97754
660   0.07919   0.89608   -0.40571   0.18046   0.07919   0.89608   -0.40571   0.18046   101.99890
661   0.07918   0.89612   -0.40480   0.18226   0.07918   0.89612   -0.40480   0.18226   102.10266
662   0.07916   0.89627   -0.40443   0.18274   0.07916   0.89627   -0.40443   0.18274   102.12708
663   0.07928   0.89587   -0.40599   0.18110   0.07928   0.89587   -0.40599   0.18110   101.97449
664   0.07931   0.89569   -0.40645   0.18094   0.07931   0.89569   -0.40645   0.18094   102.00806
665   0.07920   0.89621   -0.40556   0.18061   0.07920   0.89621   -0.40556   0.18061   102.12708
666   0.07919   0.89669   -0.40379   0.18226   0.07919   0.89669   -0.40379   0.18226   102.07825
667   0.07935   0.89608   -0.40532   0.18140   0.07935   0.89608   -0.40532   0.18140   101.98364
668   0.07937   0.89608   -0.40590   0.18046   0.07937   0.89608   -0.40590   0.18046   102.04163
669   0.07922   0.89621   -0.40513   0.18149   0.07922   0.89621   -0.40513   0.18149   102.13623
670   0.07926   0.89639   -0.40522   0.18030   0.07926   0.89639   -0.40522   0.18030   102.05383
671   0.07932   0.89651   -0.40495   0.18064   0.07932   0.89651   -0.40495   0.18064   101.95007
672   0.07922   0.89633   -0.40553   0.17985   0.07922   0.89633   -0.40553   0.17985   102.05688
673   0.07910   0.89602   -0.40574   0.18085   0.07910   0.89602   -0.40574   0.18085   102.09351
674   0.07920   0.89615   -0.40559   0.18073   0.07920   0.89615   -0.40559   0.18073   102.01111
675   0.07921   0.89633   -0.40486   0.18107   0.07921   0.89633   -0.40486   0.18107   102.01111
676   0.07920   0.89642   -0.40510   0.18000   0.07920   0.89642   -0.40510   0.18000   102.05688
677   0.07918   0.89572   -0.40611   0.18146   0.07918   0.89572   -0.40611   0.18146   102.09045
678   0.07922   0.89636   -0.40455   0.18210   0.07922   0.89636   -0.40455   0.18210   102.03247
679   0.07922   0.89651   -0.40529   0.17982   0.07922   0.89651   -0.40529   0.17982   102.06604
680   0.07919   0.89636   -0.40547   0.18015   0.07919   0.89636   -0.40547   0.18015   102.07825
681   0.07928   0.89636   -0.40522   0.18021   0.07928   0.89636   -0.40522   0.18021   102.04163
682   0.07922   0.89618   -0.40590   0.17975   0.07922   0.89618   -0.40590   0.17975   102.02026
683   0.07922   0.89651   -0.40529   0.17954   0.07922   0.89651   -0.40529   0.17954   102.06604
684   0.07922   0.89633   -0.40529   0.18073   0.07922   0.89633   -0.40529   0.18073   102.04468
685   0.07921   0.89605   -0.40474   0.18296   0.07921   0.89605   -0.40474   0.18296   102.01111
686   0.07917   0.89578   -0.40507   0.18311   0.07917   0.89578   -0.40507   0.18311   102.05688
687   0.07913   0.89651   -0.40425   0.18204   0.07913   0.89651   -0.40425   0.18204   102.09351
688   0.07926   0.89563   -0.40651   0.18165   0.07926   0.89563   -0.40651   0.18165   102.04163
689   0.07926   0.89648   -0.40422   0.18253   0.07926   0.89648   -0.40422   0.18253   101.99585
690   0.07924   0.89596   -0.40507   0.18265   0.07924   0.89596   -0.40507   0.18265   102.05383
691   0.07922   0.89666   -0.40391   0.18201   0.07922   0.89666   -0.40391   0.18201   102.13623
692   0.07929   0.89618   -0.40443   0.18302   0.07929   0.89618   -0.40443   0.18302   102.06604
693   0.07935   0.89599   -0.40550   0.18198   0.07935   0.89599   -0.40550   0.18198   102.00500
694   0.07920   0.89682   -0.40440   0.18024   0.07920   0.89682   -0.40440   0.18024   102.10266
695   0.07922   0.89630   -0.40486   0.18131   0.07922   0.89630   -0.40486   0.18131   102.17285
696   0.07930   0.89679   -0.40373   0.18177   0.07930   0.89679   -0.40373   0.18177   101.98364
697   0.07930   0.89663   -0.40440   0.18119   0.07930   0.89663   -0.40440   0.18119   101.99585
698   0.07918   0.89657   -0.40413   0.18155   0.07918   0.89657   -0.40413   0.18155   102.12708
699   0.07913   0.89697   -0.40345   0.18162   0.07913   0.89697   -0.40345   0.18162   102.08130
700   0.07917   0.89645   -0.40477   0.18131   0.07917   0.89645   -0.40477   0.18131   101.98669
701   0.07913   0.89679   -0.40413   0.18088   0.07913   0.89679   -0.40413   0.18088   102.01111
702   0.07911   0.89694   -0.40440   0.17985   0.07911   0.89694   -0.40440   0.17985   102.11792
703   0.07915   0.89663   -0.40492   0.18018   0.07915   0.89663   -0.40492   0.18018   102.04468
704   0.07918   0.89657   -0.40388   0.18226   0.07918   0.89657   -0.40388   0.18226   102.03247
705   0.07921   0.89682   -0.40339   0.18204   0.07921   0.89682   -0.40339   0.18204   102.03247
706   0.07920   0.89633   -0.40339   0.18436   0.07920   0.89633   -0.40339   0.18436   102.12708
707   0.07930   0.89651   -0.40358   0.18363   0.07930   0.89651   -0.40358   0.18363   102.02026
708   0.07928   0.89608   -0.40455   0.18317   0.07928   0.89608   -0.40455   0.18317   102.05383
709   0.07925   0.89657   -0.40345   0.18345   0.07925   0.89657   -0.40345   0.18345   102.09961
710   0.07926   0.89673   -0.40471   0.18012   0.07926   0.89673   -0.40471   0.18012   102.02026
711   0.07928   0.89749   -0.40266   0.18064   0.07928   0.89749   -0.40266   0.18064   102.02026
712   0.07921   0.89615   -0.40455   0.18296   0.07921   0.89615   -0.40455   0.18296   102.09045
713   0.07923   0.89654   -0.40370   0.18342   0.07923   0.89654   -0.40370   0.18342   102.09045
714   0.07922   0.89639   -0.40361   0.18403   0.07922   0.89639   -0.40361   0.18403   102.02026
715   0.07922   0.89660   -0.40385   0.18186   0.07922   0.89660   -0.40385   0.18186   102.00806
716   0.07916   0.89663   -0.40446   0.18091   0.07916   0.89663   -0.40446   0.18091   102.08130
717   0.07923   0.89663   -0.40361   0.18305   0.07923   0.89663   -0.40361   0.18305   102.09045
718   0.07930   0.89669   -0.40422   0.18107   0.07930   0.89669   -0.40422   0.18107   101.97144
719   0.07924   0.89663   -0.40413   0.18143   0.07924   0.89663   -0.40413   0.18143   102.02026
720   0.07916   0.89679   -0.40388   0.18155   0.07916   0.89679   -0.40388   0.18155   102.13928
721   0.07921   0.89663   -0.40324   0.18320   0.07921   0.89663   -0.40324   0.18320   102.04468
722   0.07929   0.89648   -0.40480   0.18101   0.07929   0.89648   -0.40480   0.18101   101.97449
723   0.07921   0.89703   -0.40330   0.18198   0.07921   0.89703   -0.40330   0.18198   102.03247
724   0.07919   0.89676   -0.40391   0.18110   0.07919   0.89676   -0.40391   0.18110   102.12708
725   0.07927   0.89700   -0.40355   0.18073   0.07927   0.89700   -0.40355   0.18073   102.02026
726   0.07923   0.89688   -0.40333   0.18229   0.07923   0.89688   -0.40333   0.18229   101.99890
727   0.07908   0.89734   -0.40263   0.18143   0.07908   0.89734   -0.40263   0.18143   102.08130
728   0.07892   0.89642   -0.40370   0.18326   0.07892   0.89642   -0.40370   0.18326   102.10876
729   0.07918   0.89639   -0.40315   0.18497   0.07918   0.89639   -0.40315   0.18497   101.99890
730   0.07922   0.89752   -0.40211   0.18168   0.07922   0.89752   -0.40211   0.18168   102.00806
731   0.07921   0.89700   -0.40352   0.18097   0.07921   0.89700   -0.40352   0.18097   102.09045
732   0.07916   0.89706   -0.40318   0.18168   0.07916   0.89706   -0.40318   0.18168   102.04468
733   0.07927   0.89651   -0.40361   0.18351   0.07927   0.89651   -0.40361   0.18351   102.02026
734   0.07931   0.89734   -0.40266   0.18155   0.07931   0.89734   -0.40266   0.18155   101.96228
735   0.07928   0.89746   -0.40211   0.18174   0.07928   0.89746   -0.40211   0.18174   102.03247
736   0.07934   0.89706   -0.40239   0.18332   0.07934   0.89706   -0.40239   0.18332   102.02942
737   0.07930   0.89630   -0.40373   0.18424   0.07930   0.89630   -0.40373   0.18424   102.06604
738   0.07932   0.89651   -0.40382   0.18317   0.07932   0.89651   -0.40382   0.18317   102.07520
739   0.07930   0.89694   -0.40275   0.18317   0.07930   0.89694   -0.40275   0.18317   102.02942
740   0.07925   0.89688   -0.40312   0.18213   0.07925   0.89688   -0.40312   0.18213   102.03247
741   0.07914   0.89767   -0.40193   0.18131   0.07914   0.89767   -0.40193   0.18131   101.98975
742   0.07909   0.89688   -0.40419   0.18027   0.07909   0.89688   -0.40419   0.18027   102.08130
743   0.07927   0.89679   -0.40208   0.18503   0.07927   0.89679   -0.40208   0.18503   102.02026
744   0.07930   0.89663   -0.40349   0.18320   0.07930   0.89663   -0.40349   0.18320   102.00806
745   0.07915   0.89718   -0.40303   0.18168   0.07915   0.89718   -0.40303   0.18168   102.05688
746   0.07922   0.89682   -0.40236   0.18451   0.07922   0.89682   -0.40236   0.18451   102.09045
747   0.07943   0.89660   -0.40306   0.18378   0.07943   0.89660   -0.40306   0.18378   101.95923
748   0.07935   0.89694   -0.40364   0.18113   0.07935   0.89694   -0.40364   0.18113   102.02942
749   0.07911   0.89688   -0.40397   0.18052   0.07911   0.89688   -0.40397   0.18052   102.10571
750   0.07913   0.89724   -0.40281   0.18165   0.07913   0.89724   -0.40281   0.18165   102.04773
751   0.07942   0.89657   -0.40342   0.18290   0.07942   0.89657   -0.40342   0.18290   101.98059
752   0.07941   0.89712   -0.40245   0.18290   0.07941   0.89712   -0.40245   0.18290   102.00500
753   0.07919   0.89706   -0.40342   0.18152   0.07919   0.89706   -0.40342   0.18152   102.09045
754   0.07914   0.89727   -0.40263   0.18177   0.07914   0.89727   -0.40263   0.18177   102.04468
755   0.07918   0.89724   -0.40248   0.18244   0.07918   0.89724   -0.40248   0.18244   101.98669
756   0.07923   0.89648   -0.40309   0.18455   0.07923   0.89648   -0.40309   0.18455   102.05383
757   0.07914   0.89724   -0.40294   0.18122   0.07914   0.89724   -0.40294   0.18122   102.12708
758   0.07922   0.89654   -0.40324   0.18415   0.07922   0.89654   -0.40324   0.18415   102.03247
759   0.07926   0.89706   -0.40187   0.18381   0.07926   0.89706   -0.40187   0.18381   101.99585
760   0.07924   0.89697   -0.40220   0.18384   0.07924   0.89697   -0.40220   0.18384   102.07825
761   0.07929   0.89676   -0.40300   0.18345   0.07929   0.89676   -0.40300   0.18345   102.12402
762   0.07933   0.89663   -0.40248   0.18479   0.07933   0.89663   -0.40248   0.18479   102.02942
763   0.07943   0.89749   -0.40208   0.18238   0.07943   0.89749   -0.40208   0.18238   101.98059
764   0.07933   0.89718   -0.40223   0.18323   0.07933   0.89718   -0.40223   0.18323   102.05383
765   0.07905   0.89758   -0.40208   0.18137   0.07905   0.89758   -0.40208   0.18137   102.04773
766   0.07922   0.89731   -0.40275   0.18143   0.07922   0.89731   -0.40275   0.18143   101.98669
767   0.07939   0.89740   -0.40107   0.18439   0.07939   0.89740   -0.40107   0.18439   102.02942
768   0.07919   0.89740   -0.40172   0.18262   0.07919   0.89740   -0.40172   0.18262   102.06909
769   0.07908   0.89682   -0.40260   0.18421   0.07908   0.89682   -0.40260   0.18421   102.02332
770   0.07917   0.89651   -0.40309   0.18415   0.07917   0.89651   -0.40309   0.18415   102.10266
771   0.07922   0.89685   -0.40327   0.18235   0.07922   0.89685   -0.40327   0.18235   102.07825
772   0.07923   0.89731   -0.40175   0.18360   0.07923   0.89731   -0.40175   0.18360   102.03247
773   0.07926   0.89758   -0.40095   0.18424   0.07926   0.89758   -0.40095   0.18424   101.95007
774   0.07922   0.89767   -0.40175   0.18183   0.07922   0.89767   -0.40175   0.18183   102.03247
775   0.07923   0.89761   -0.40159   0.18235   0.07923   0.89761   -0.40159   0.18235   102.04468
776   0.07927   0.89691   -0.40269   0.18345   0.07927   0.89691   -0.40269   0.18345   102.00806
777   0.07932   0.89721   -0.40110   0.18494   0.07932   0.89721   -0.40110   0.18494   101.96228
778   0.07929   0.89721   -0.40172   0.18418   0.07929   0.89721   -0.40172   0.18418   102.04163
779   0.07924   0.89724   -0.40263   0.18216   0.07924   0.89724   -0.40263   0.18216   102.09045
780   0.07934   0.89746   -0.40010   0.18632   0.07934   0.89746   -0.40010   0.18632   101.93787
781   0.07931   0.89737   -0.40059   0.18546   0.07931   0.89737   -0.40059   0.18546   101.97144
782   0.07922   0.89727   -0.40184   0.18329   0.07922   0.89727   -0.40184   0.18329   102.13623
783   0.07917   0.89755   -0.40120   0.18339   0.07917   0.89755   -0.40120   0.18339   102.04468
784   0.07929   0.89764   -0.40037   0.18448   0.07929   0.89764   -0.40037   0.18448   101.95007
785   0.07927   0.89773   -0.40013   0.18436   0.07927   0.89773   -0.40013   0.18436   101.96228
786   0.07922   0.89743   -0.40117   0.18427   0.07922   0.89743   -0.40117   0.18427   102.10266
787   0.07929   0.89737   -0.40126   0.18421   0.07929   0.89737   -0.40126   0.18421   102.02026
788   0.07931   0.89804   -0.40052   0.18238   0.07931   0.89804   -0.40052   0.18238   101.92566
789   0.07925   0.89746   -0.40196   0.18238   0.07925   0.89746   -0.40196   0.18238   102.00806
790   0.07921   0.89773   -0.40065   0.18351   0.07921   0.89773   -0.40065   0.18351   102.02026
791   0.07927   0.89761   -0.40104   0.18387   0.07927   0.89761   -0.40104   0.18387   102.00806
792   0.07929   0.89724   -0.40269   0.18159   0.07929   0.89724   -0.40269   0.18159   102.02026
793   0.07929   0.89804   -0.40028   0.18268   0.07929   0.89804   -0.40028   0.18268   101.98364
794   0.07923   0.89813   -0.40040   0.18287   0.07923   0.89813   -0.40040   0.18287   101.98669
795   0.07932   0.89755   -0.40092   0.18461   0.07932   0.89755   -0.40092   0.18461   101.95007
796   0.07922   0.89798   -0.40028   0.18326   0.07922   0.89798   -0.40028   0.18326   101.96228
797   0.07915   0.89764   -0.40138   0.18226   0.07915   0.89764   -0.40138   0.18226   102.03552
798   0.07922   0.89807   -0.40001   0.18332   0.07922   0.89807   -0.40001   0.18332   101.96228
799   0.07922   0.89785   -0.40071   0.18323   0.07922   0.89785   -0.40071   0.18323   101.99890
800   0.07918   0.89837   -0.39985   0.18268   0.07918   0.89837   -0.39985   0.18268   101.99890
801   0.07920   0.89807   -0.40049   0.18226   0.07920   0.89807   -0.40049   0.18226   102.04468
802   0.07926   0.89840   -0.39946   0.18293   0.07926   0.89840   -0.39946   0.18293   101.95007
803   0.07924   0.89785   -0.40092   0.18244   0.07924   0.89785   -0.40092   0.18244   101.96228
804   0.07919   0.89767   -0.40156   0.18186   0.07919   0.89767   -0.40156   0.18186   102.09045
805   0.07925   0.89846   -0.39985   0.18250   0.07925   0.89846   -0.39985   0.18250   101.96228
806   0.07927   0.89789   -0.40052   0.18299   0.07927   0.89789   -0.40052   0.18299   101.95007
807   0.07930   0.89831   -0.39906   0.18458   0.07930   0.89831   -0.39906   0.18458   101.98364
808   0.07922   0.89718   -0.40199   0.18348   0.07922   0.89718   -0.40199   0.18348   102.10266
809   0.07928   0.89755   -0.40077   0.18430   0.07928   0.89755   -0.40077   0.18430   101.99585
810   0.07925   0.89822   -0.39982   0.18357   0.07925   0.89822   -0.39982   0.18357   101.91650
811   0.07913   0.89828   -0.40004   0.18223   0.07913   0.89828   -0.40004   0.18223   102.02332
812   0.07920   0.89776   -0.40013   0.18497   0.07920   0.89776   -0.40013   0.18497   102.09045
813   0.07931   0.89776   -0.40022   0.18439   0.07931   0.89776   -0.40022   0.18439   101.93787
814   0.07929   0.89767   -0.40144   0.18253   0.07929   0.89767   -0.40144   0.18253   101.95007
815   0.07915   0.89743   -0.40202   0.18250   0.07915   0.89743   -0.40202   0.18250   102.08130
816   0.07922   0.89734   -0.40211   0.18253   0.07922   0.89734   -0.40211   0.18253   102.05688
817   0.07929   0.89767   -0.40068   0.18372   0.07929   0.89767   -0.40068   0.18372   101.97449
818   0.07929   0.89789   -0.40101   0.18223   0.07929   0.89789   -0.40101   0.18223   101.97449
819   0.07923   0.89792   -0.40077   0.18296   0.07923   0.89792   -0.40077   0.18296   102.03247
820   0.07921   0.89758   -0.40168   0.18256   0.07921   0.89758   -0.40168   0.18256   102.03247
821   0.07927   0.89828   -0.39985   0.18342   0.07927   0.89828   -0.39985   0.18342   101.96228
822   0.07923   0.89798   -0.40083   0.18201   0.07923   0.89798   -0.40083   0.18201   101.96228
823   0.07916   0.89767   -0.40107   0.18302   0.07916   0.89767   -0.40107   0.18302   102.06909
824   0.07913   0.89734   -0.40208   0.18238   0.07913   0.89734   -0.40208   0.18238   102.02332
825   0.07917   0.89782   -0.40071   0.18323   0.07917   0.89782   -0.40071   0.18323   101.94092
826   0.07918   0.89764   -0.40172   0.18198   0.07918   0.89764   -0.40172   0.18198   101.98669
827   0.07916   0.89792   -0.40071   0.18262   0.07916   0.89792   -0.40071   0.18262   102.02332
828   0.07927   0.89785   -0.40016   0.18430   0.07927   0.89785   -0.40016   0.18430   101.93787
829   0.07931   0.89785   -0.40062   0.18311   0.07931   0.89785   -0.40062   0.18311   101.98364
830   0.07926   0.89758   -0.40178   0.18195   0.07926   0.89758   -0.40178   0.18195   102.04163
831   0.07922   0.89743   -0.40168   0.18323   0.07922   0.89743   -0.40168   0.18323   102.00806
832   0.07929   0.89724   -0.40202   0.18308   0.07929   0.89724   -0.40202   0.18308   101.98364
833   0.07927   0.89789   -0.40117   0.18198   0.07927   0.89789   -0.40117   0.18198   102.00806
834   0.07922   0.89709   -0.40211   0.18378   0.07922   0.89709   -0.40211   0.18378   102.07825
835   0.07922   0.89712   -0.40257   0.18274   0.07922   0.89712   -0.40257   0.18274   101.99890
836   0.07920   0.89810   -0.40034   0.18262   0.07920   0.89810   -0.40034   0.18262   101.98669
837   0.07913   0.89764   -0.40187   0.18192   0.07913   0.89764   -0.40187   0.18192   102.05688
838   0.07909   0.89734   -0.40193   0.18290   0.07909   0.89734   -0.40193   0.18290   102.02332
839   0.07922   0.89743   -0.40211   0.18229   0.07922   0.89743   -0.40211   0.18229   101.94092
840   0.07921   0.89718   -0.40172   0.18415   0.07921   0.89718   -0.40172   0.18415   102.03247
841   0.07916   0.89682   -0.40226   0.18451   0.07916   0.89682   -0.40226   0.18451   102.09045
842   0.07920   0.89703   -0.40211   0.18354   0.07920   0.89703   -0.40211   0.18354   102.01111
843   0.07925   0.89740   -0.40126   0.18403   0.07925   0.89740   -0.40126   0.18403   101.90430
844   0.07919   0.89703   -0.40263   0.18281   0.07919   0.89703   -0.40263   0.18281   102.03247
845   0.07916   0.89676   -0.40306   0.18320   0.07916   0.89676   -0.40306   0.18320   102.10266
846   0.07913   0.89669   -0.40330   0.18326   0.07913   0.89669   -0.40330   0.18326   101.98975
847   0.07906   0.89688   -0.40037   0.18854   0.07906   0.89688   -0.40037   0.18854   101.91040
848   0.07925   0.89688   -0.40208   0.18540   0.07925   0.89688   -0.40208   0.18540   102.05383
849   0.07929   0.89666   -0.40223   0.18519   0.07929   0.89666   -0.40223   0.18519   102.11182
850   0.07928   0.89651   -0.40303   0.18497   0.07928   0.89651   -0.40303   0.18497   102.00806
851   0.07913   0.89685   -0.40336   0.18229   0.07913   0.89685   -0.40336   0.18229   101.98975
852   0.07903   0.89734   -0.40181   0.18299   0.07903   0.89734   -0.40181   0.18299   102.04773
853   0.07920   0.89709   -0.40126   0.18561   0.07920   0.89709   -0.40126   0.18561   102.05688
854   0.07918   0.89727   -0.40132   0.18476   0.07918   0.89727   -0.40132   0.18476   101.98669
855   0.07917   0.89676   -0.40294   0.18387   0.07917   0.89676   -0.40294   0.18387   102.03247
856   0.07908   0.89773   -0.39985   0.18583   0.07908   0.89773   -0.39985   0.18583   102.01416
857   0.07919   0.89694   -0.40312   0.18204   0.07919   0.89694   -0.40312   0.18204   102.05688
858   0.07929   0.89688   -0.40333   0.18201   0.07929   0.89688   -0.40333   0.18201   101.97449
859   0.07922   0.89782   -0.40159   0.18168   0.07922   0.89782   -0.40159   0.18168   102.03247
860   0.07922   0.89697   -0.40284   0.18299   0.07922   0.89697   -0.40284   0.18299   102.03247
861   0.07921   0.89703   -0.40284   0.18238   0.07921   0.89703   -0.40284   0.18238   101.99890
862   0.07930   0.89706   -0.40208   0.18406   0.07930   0.89706   -0.40208   0.18406   102.02026
863   0.07930   0.89767   -0.40147   0.18213   0.07930   0.89767   -0.40147   0.18213   102.04163
864   0.07925   0.89712   -0.40178   0.18427   0.07925   0.89712   -0.40178   0.18427   101.99585
865   0.07918   0.89709   -0.40260   0.18323   0.07918   0.89709   -0.40260   0.18323   102.01111
866   0.07916   0.89727   -0.40223   0.18262   0.07916   0.89727   -0.40223   0.18262   102.04468
867   0.07917   0.89767   -0.40162   0.18223   0.07917   0.89767   -0.40162   0.18223   102.04468
868   0.07924   0.89776   -0.40120   0.18290   0.07924   0.89776   -0.40120   0.18290   101.94092
869   0.07928   0.89734   -0.40156   0.18345   0.07928   0.89734   -0.40156   0.18345   101.98364
870   0.07921   0.89679   -0.40278   0.18342   0.07921   0.89679   -0.40278   0.18342   102.10266
871   0.07929   0.89703   -0.40202   0.18439   0.07929   0.89703   -0.40202   0.18439   102.09961
872   0.07935   0.89758   -0.40071   0.18445   0.07935   0.89758   -0.40071   0.18445   101.91345
873   0.07928   0.89715   -0.40205   0.18378   0.07928   0.89715   -0.40205   0.18378   101.97449
874   0.07919   0.89718   -0.40303   0.18131   0.07919   0.89718   -0.40303   0.18131   102.06909
875   0.07922   0.89724   -0.40141   0.18433   0.07922   0.89724   -0.40141   0.18433   102.05688
876   0.07932   0.89682   -0.40309   0.18299   0.07932   0.89682   -0.40309   0.18299   101.98364
877   0.07926   0.89706   -0.40223   0.18336   0.07926   0.89706   -0.40223   0.18336   101.96228
878   0.07914   0.89685   -0.40300   0.18311   0.07914   0.89685   -0.40300   0.18311   102.08130
879   0.07913   0.89712   -0.40242   0.18271   0.07913   0.89712   -0.40242   0.18271   102.06909
880   0.07922   0.89731   -0.40205   0.18308   0.07922   0.89731   -0.40205   0.18308   101.95313
881   0.07918   0.89715   -0.40254   0.18253   0.07918   0.89715   -0.40254   0.18253   102.03247
882   0.07913   0.89761   -0.40153   0.18247   0.07913   0.89761   -0.40153   0.18247   102.08130
883   0.07919   0.89746   -0.40117   0.18403   0.07919   0.89746   -0.40117   0.18403   101.97449
884   0.07924   0.89709   -0.40330   0.18149   0.07924   0.89709   -0.40330   0.18149   101.97449
885   0.07926   0.89691   -0.40205   0.18476   0.07926   0.89691   -0.40205   0.18476   102.07825
886   0.07925   0.89679   -0.40254   0.18424   0.07925   0.89679   -0.40254   0.18424   102.09045
887   0.07933   0.89715   -0.40098   0.18598   0.07933   0.89715   -0.40098   0.18598   101.93787
888   0.07930   0.89718   -0.40300   0.18180   0.07930   0.89718   -0.40300   0.18180   101.95007
889   0.07928   0.89642   -0.40309   0.18448   0.07928   0.89642   -0.40309   0.18448   102.09961
890   0.07928   0.89691   -0.40229   0.18400   0.07928   0.89691   -0.40229   0.18400   102.02026
891   0.07929   0.89633   -0.40287   0.18546   0.07929   0.89633   -0.40287   0.18546   102.02026
892   0.07925   0.89669   -0.40306   0.18323   0.07925   0.89669   -0.40306   0.18323   102.07825
893   0.07917   0.89734   -0.40107   0.18488   0.07917   0.89734   -0.40107   0.18488   102.02332
894   0.07932   0.89731   -0.40138   0.18424   0.07932   0.89731   -0.40138   0.18424   101.96228
895   0.07927   0.89673   -0.40321   0.18329   0.07927   0.89673   -0.40321   0.18329   102.02026
896   0.07914   0.89642   -0.40452   0.18226   0.07914   0.89642   -0.40452   0.18226   102.06909
897   0.07919   0.89685   -0.40318   0.18256   0.07919   0.89685   -0.40318   0.18256   102.05688
898   0.07929   0.89691   -0.40291   0.18274   0.07929   0.89691   -0.40291   0.18274   101.97449
899   0.07922   0.89676   -0.40345   0.18195   0.07922   0.89676   -0.40345   0.18195   102.04468
900   0.07920   0.89737   -0.40208   0.18253   0.07920   0.89737   -0.40208   0.18253   102.05688
901   0.07925   0.89685   -0.40294   0.18305   0.07925   0.89685   -0.40294   0.18305   102.00806
902   0.07928   0.89639   -0.40452   0.18189   0.07928   0.89639   -0.40452   0.18189   101.98364
903   0.07929   0.89669   -0.40278   0.18439   0.07929   0.89669   -0.40278   0.18439   102.05383
904   0.07920   0.89642   -0.40403   0.18284   0.07920   0.89642   -0.40403   0.18284   102.12708
905   0.07923   0.89639   -0.40422   0.18253   0.07923   0.89639   -0.40422   0.18253   101.98669
906   0.07919   0.89602   -0.40498   0.18265   0.07919   0.89602   -0.40498   0.18265   101.99890
907   0.07909   0.89648   -0.40416   0.18198   0.07909   0.89648   -0.40416   0.18198   102.12708
908   0.07915   0.89694   -0.40294   0.18238   0.07915   0.89694   -0.40294   0.18238   102.08130
909   0.07922   0.89694   -0.40278   0.18329   0.07922   0.89694   -0.40278   0.18329   101.96228
910   0.07920   0.89660   -0.40349   0.18290   0.07920   0.89660   -0.40349   0.18290   102.02026
911   0.07914   0.89676   -0.40382   0.18171   0.07914   0.89676   -0.40382   0.18171   102.10266
912   0.07917   0.89608   -0.40464   0.18290   0.07917   0.89608   -0.40464   0.18290   102.10266
913   0.07928   0.89669   -0.40349   0.18259   0.07928   0.89669   -0.40349   0.18259   101.98364
914   0.07927   0.89685   -0.40229   0.18448   0.07927   0.89685   -0.40229   0.18448   102.04163
915   0.07921   0.89682   -0.40364   0.18162   0.07921   0.89682   -0.40364   0.18162   102.11487
916   0.07922   0.89697   -0.40336   0.18149   0.07922   0.89697   -0.40336   0.18149   102.05688
917   0.07931   0.89694   -0.40260   0.18363   0.07931   0.89694   -0.40260   0.18363   101.99585
918   0.07930   0.89645   -0.40379   0.18299   0.07930   0.89645   -0.40379   0.18299   102.06604
919   0.07922   0.89636   -0.40358   0.18369   0.07922   0.89636   -0.40358   0.18369   102.11487
920   0.07923   0.89688   -0.40287   0.18332   0.07923   0.89688   -0.40287   0.18332   102.04468
921   0.07914   0.89706   -0.40309   0.18174   0.07914   0.89706   -0.40309   0.18174   101.99890
922   0.07916   0.89663   -0.40413   0.18146   0.07916   0.89663   -0.40413   0.18146   102.09045
923   0.07915   0.89636   -0.40431   0.18229   0.07915   0.89636   -0.40431   0.18229   102.04468
924   0.07928   0.89657   -0.40391   0.18216   0.07928   0.89657   -0.40391   0.18216   102.03247
925   0.07926   0.89651   -0.40355   0.18357   0.07926   0.89651   -0.40355   0.18357   102.05383
926   0.07925   0.89639   -0.40349   0.18378   0.07925   0.89639   -0.40349   0.18378   102.11182
927   0.07928   0.89666   -0.40257   0.18445   0.07928   0.89666   -0.40257   0.18445   101.99585
928   0.07916   0.89618   -0.40468   0.18204   0.07916   0.89618   -0.40468   0.18204   102.03552
929   0.07916   0.89633   -0.40428   0.18268   0.07916   0.89633   -0.40428   0.18268   102.06909
930   0.07930   0.89676   -0.40312   0.18323   0.07930   0.89676   -0.40312   0.18323   102.02942
931   0.07943   0.89593   -0.40443   0.18394   0.07943   0.89593   -0.40443   0.18394   101.98059
932   0.07928   0.89645   -0.40425   0.18229   0.07928   0.89645   -0.40425   0.18229   102.00806
933   0.07911   0.89612   -0.40532   0.18104   0.07911   0.89612   -0.40532   0.18104   102.09351
934   0.07916   0.89608   -0.40513   0.18140   0.07916   0.89608   -0.40513   0.18140   102.04468
935   0.07925   0.89648   -0.40385   0.18336   0.07925   0.89648   -0.40385   0.18336   102.00806
936   0.07922   0.89627   -0.40513   0.18094   0.07922   0.89627   -0.40513   0.18094   102.10266
937   0.07915   0.89657   -0.40431   0.18159   0.07915   0.89657   -0.40431   0.18159   102.12708
938   0.07924   0.89639   -0.40471   0.18131   0.07924   0.89639   -0.40471   0.18131   102.02026
939   0.07929   0.89636   -0.40455   0.18186   0.07929   0.89636   -0.40455   0.18186   101.99585
940   0.07923   0.89657   -0.40468   0.18058   0.07923   0.89657   -0.40468   0.18058   102.07825
941   0.07917   0.89663   -0.40394   0.18189   0.07917   0.89663   -0.40394   0.18189   102.09045
942   0.07929   0.89648   -0.40419   0.18226   0.07929   0.89648   -0.40419   0.18226   102.00806
943   0.07930   0.89673   -0.40431   0.18119   0.07930   0.89673   -0.40431   0.18119   101.98364
944   0.07922   0.89627   -0.40513   0.18079   0.07922   0.89627   -0.40513   0.18079   102.11487
945   0.07922   0.89648   -0.40458   0.18165   0.07922   0.89648   -0.40458   0.18165   102.05688
946   0.07927   0.89660   -0.40391   0.18189   0.07927   0.89660   -0.40391   0.18189   102.04163
947   0.07934   0.89645   -0.40486   0.18094   0.07934   0.89645   -0.40486   0.18094   102.01721
948   0.07913   0.89618   -0.40516   0.18137   0.07913   0.89618   -0.40516   0.18137   102.10571
949   0.07907   0.89694   -0.40364   0.18140   0.07907   0.89694   -0.40364   0.18140   102.01416
950   0.07916   0.89596   -0.40492   0.18296   0.07916   0.89596   -0.40492   0.18296   102.02332
951   0.07930   0.89593   -0.40480   0.18390   0.07930   0.89593   -0.40480   0.18390   102.08740
952   0.07928   0.89669   -0.40419   0.18137   0.07928   0.89669   -0.40419   0.18137   102.11182
953   0.07924   0.89633   -0.40492   0.18152   0.07924   0.89633   -0.40492   0.18152   102.02026
954   0.07917   0.89612   -0.40574   0.18055   0.07917   0.89612   -0.40574   0.18055   102.06909
955   0.07922   0.89657   -0.40336   0.18329   0.07922   0.89657   -0.40336   0.18329   102.09045
956   0.07934   0.89621   -0.40431   0.18329   0.07934   0.89621   -0.40431   0.18329   102.06299
957   0.07928   0.89660   -0.40407   0.18152   0.07928   0.89660   -0.40407   0.18152   102.04163
958   0.07921   0.89639   -0.40449   0.18201   0.07921   0.89639   -0.40449   0.18201   102.07825
959   0.07915   0.89630   -0.40498   0.18110   0.07915   0.89630   -0.40498   0.18110   102.12708
960   0.07922   0.89660   -0.40440   0.18131   0.07922   0.89660   -0.40440   0.18131   101.97449
961   0.07922   0.89682   -0.40361   0.18186   0.07922   0.89682   -0.40361   0.18186   101.99890
962   0.07908   0.89645   -0.40550   0.17924   0.07908   0.89645   -0.40550   0.17924   102.13013
963   0.07926   0.89669   -0.40428   0.18137   0.07926   0.89669   -0.40428   0.18137   102.07825
964   0.07934   0.89639   -0.40477   0.18134   0.07934   0.89639   -0.40477   0.18134   101.99585
965   0.07898   0.89587   -0.40654   0.18039   0.07898   0.89587   -0.40654   0.18039   102.00500
966   0.07900   0.89666   -0.40446   0.18052   0.07900   0.89666   -0.40446   0.18052   102.12097
967   0.07931   0.89630   -0.40522   0.18067   0.07931   0.89630   -0.40522   0.18067   102.05383
968   0.07926   0.89648   -0.40413   0.18250   0.07926   0.89648   -0.40413   0.18250   101.97449
969   0.07909   0.89663   -0.40428   0.18104   0.07909   0.89663   -0.40428   0.18104   102.07214
970   0.07911   0.89657   -0.40443   0.18101   0.07911   0.89657   -0.40443   0.18101   102.11792
971   0.07919   0.89627   -0.40538   0.18055   0.07919   0.89627   -0.40538   0.18055   102.10266
972   0.07929   0.89618   -0.40562   0.18085   0.07929   0.89618   -0.40562   0.18085   101.98364
973   0.07922   0.89605   -0.40501   0.18229   0.07922   0.89605   -0.40501   0.18229   102.09045
974   0.07923   0.89590   -0.40568   0.18183   0.07923   0.89590   -0.40568   0.18183   102.07825
975   0.07923   0.89578   -0.40513   0.18342   0.07923   0.89578   -0.40513   0.18342   102.03247
976   0.07922   0.89624   -0.40452   0.18296   0.07922   0.89624   -0.40452   0.18296   102.00806
977   0.07911   0.89618   -0.40568   0.18067   0.07911   0.89618   -0.40568   0.18067   102.11792
978   0.07914   0.89651   -0.40483   0.18085   0.07914   0.89651   -0.40483   0.18085   102.08130
979   0.07919   0.89636   -0.40547   0.17985   0.07919   0.89636   -0.40547   0.17985   102.07825
980   0.07921   0.89630   -0.40535   0.18058   0.07921   0.89630   -0.40535   0.18058   102.05688
981   0.07916   0.89721   -0.40355   0.18003   0.07916   0.89721   -0.40355   0.18003   102.08130
982   0.07922   0.89694   -0.40413   0.18058   0.07922   0.89694   -0.40413   0.18058   102.04468
983   0.07924   0.89630   -0.40574   0.17963   0.07924   0.89630   -0.40574   0.17963   102.03247
984   0.07919   0.89578   -0.40681   0.18033   0.07919   0.89578   -0.40681   0.18033   102.05688
985   0.07923   0.89676   -0.40440   0.18000   0.07923   0.89676   -0.40440   0.18000   102.03247
986   0.07930   0.89642   -0.40364   0.18424   0.07930   0.89642   -0.40364   0.18424   102.00806
987   0.07919   0.89584   -0.40516   0.18293   0.07919   0.89584   -0.40516   0.18293   102.13623
988   0.07916   0.89663   -0.40486   0.18003   0.07916   0.89663   -0.40486   0.18003   102.09045
989   0.07922   0.89648   -0.40327   0.18412   0.07922   0.89648   -0.40327   0.18412   102.06604
990   0.07922   0.89581   -0.40550   0.18247   0.07922   0.89581   -0.40550   0.18247   102.05688
991   0.07915   0.89654   -0.40483   0.18058   0.07915   0.89654   -0.40483   0.18058   102.06909
992   0.07911   0.89593   -0.40538   0.18256   0.07911   0.89593   -0.40538   0.18256   102.12708
993   0.07924   0.89630   -0.40483   0.18186   0.07924   0.89630   -0.40483   0.18186   101.98669
994   0.07922   0.89618   -0.40556   0.18055   0.07922   0.89618   -0.40556   0.18055   102.00806
995   0.07915   0.89615   -0.40553   0.18055   0.07915   0.89615   -0.40553   0.18055   102.10266
996   0.07917   0.89627   -0.40507   0.18073   0.07917   0.89627   -0.40507   0.18073   102.10266
997   0.07923   0.89618   -0.40516   0.18140   0.07923   0.89618   -0.40516   0.18140   102.02026
998   0.07925   0.89624   -0.40541   0.18039   0.07925   0.89624   -0.40541   0.18039   102.04468
999   0.07918   0.89679   -0.40468   0.17954   0.07918   0.89679   -0.40468   0.17954   102.10266
1000   0.07927   0.89624   -0.40434   0.18345   0.07927   0.89624   -0.40434   0.18345   102.07825
1001   0.07933   0.89581   -0.40501   0.18363   0.07933   0.89581   -0.40501   0.18363   101.98364
1002   0.07924   0.89590   -0.40532   0.18210   0.07924   0.89590   -0.40532   0.18210   102.07825
1003   0.07911   0.89633   -0.40468   0.18177   0.07911   0.89633   -0.40468   0.18177   102.10571
1004   0.07924   0.89615   -0.40419   0.18400   0.07924   0.89615   -0.40419   0.18400   102.03247
1005   0.07927   0.89593   -0.40498   0.18342   0.07927   0.89593   -0.40498   0.18342   101.98364
1006   0.07919   0.89642   -0.40547   0.18009   0.07919   0.89642   -0.40547   0.18009   102.02332
1007   0.07916   0.89550   -0.40666   0.18137   0.07916   0.89550   -0.40666   0.18137   102.13928
1008   0.07926   0.89547   -0.40556   0.18384   0.07926   0.89547   -0.40556   0.18384   102.07825
1009   0.07927   0.89633   -0.40507   0.18104   0.07927   0.89633   -0.40507   0.18104   102.04163
1010   0.07919   0.89566   -0.40617   0.18177   0.07919   0.89566   -0.40617   0.18177   102.06909
1011   0.07925   0.89566   -0.40532   0.18369   0.07925   0.89566   -0.40532   0.18369   102.09961
1012   0.07930   0.89535   -0.40580   0.18390   0.07930   0.89535   -0.40580   0.18390   102.05383
1013   0.07927   0.89575   -0.40651   0.18079   0.07927   0.89575   -0.40651   0.18079   102.06604
1014   0.07924   0.89566   -0.40690   0.18021   0.07924   0.89566   -0.40690   0.18021   102.04468
1015   0.07921   0.89593   -0.40522   0.18229   0.07921   0.89593   -0.40522   0.18229   102.04468
1016   0.07919   0.89578   -0.40620   0.18058   0.07919   0.89578   -0.40620   0.18058   102.02332
1017   0.07913   0.89593   -0.40559   0.18213   0.07913   0.89593   -0.40559   0.18213   102.09351
1018   0.07926   0.89569   -0.40577   0.18259   0.07926   0.89569   -0.40577   0.18259   102.03247
1019   0.07922   0.89630   -0.40468   0.18207   0.07922   0.89630   -0.40468   0.18207   101.99890
1020   0.07917   0.89599   -0.40626   0.18043   0.07917   0.89599   -0.40626   0.18043   102.05688
1021   0.07921   0.89593   -0.40629   0.18033   0.07921   0.89593   -0.40629   0.18033   102.04468
1022   0.07921   0.89596   -0.40593   0.18076   0.07921   0.89596   -0.40593   0.18076   102.03247
1023   0.07926   0.89572   -0.40626   0.18113   0.07926   0.89572   -0.40626   0.18113   102.04163
1024   0.07917   0.89624   -0.40547   0.18018   0.07917   0.89624   -0.40547   0.18018   102.08130
1025   0.07917   0.89636   -0.40510   0.18024   0.07917   0.89636   -0.40510   0.18024   102.14844
1026   0.07922   0.89630   -0.40501   0.18116   0.07922   0.89630   -0.40501   0.18116   102.04468
1027   0.07928   0.89599   -0.40550   0.18152   0.07928   0.89599   -0.40550   0.18152   101.98364
1028   0.07921   0.89608   -0.40577   0.18076   0.07921   0.89608   -0.40577   0.18076   102.17285
1029   0.07920   0.89599   -0.40532   0.18247   0.07920   0.89599   -0.40532   0.18247   102.14844
1030   0.07923   0.89590   -0.40565   0.18189   0.07923   0.89590   -0.40565   0.18189   101.98669
1031   0.07911   0.89560   -0.40626   0.18177   0.07911   0.89560   -0.40626   0.18177   102.04773
1032   0.07915   0.89557   -0.40623   0.18195   0.07915   0.89557   -0.40623   0.18195   102.15149
1033   0.07914   0.89575   -0.40513   0.18357   0.07914   0.89575   -0.40513   0.18357   102.15149
1034   0.07928   0.89587   -0.40519   0.18278   0.07928   0.89587   -0.40519   0.18278   102.02026
1035   0.07922   0.89605   -0.40590   0.18073   0.07922   0.89605   -0.40590   0.18073   101.97449
1036   0.07913   0.89593   -0.40556   0.18195   0.07913   0.89593   -0.40556   0.18195   102.12708
1037   0.07917   0.89621   -0.40480   0.18210   0.07917   0.89621   -0.40480   0.18210   102.04468
1038   0.07927   0.89596   -0.40489   0.18336   0.07927   0.89596   -0.40489   0.18336   102.03247
1039   0.07927   0.89566   -0.40532   0.18354   0.07927   0.89566   -0.40532   0.18354   102.07825
1040   0.07920   0.89590   -0.40464   0.18372   0.07920   0.89590   -0.40464   0.18372   102.05688
1041   0.07932   0.89621   -0.40461   0.18278   0.07932   0.89621   -0.40461   0.18278   101.99585
1042   0.07929   0.89593   -0.40529   0.18241   0.07929   0.89593   -0.40529   0.18241   102.02942
1043   0.07920   0.89648   -0.40452   0.18146   0.07920   0.89648   -0.40452   0.18146   102.12708
1044   0.07918   0.89612   -0.40468   0.18290   0.07918   0.89612   -0.40468   0.18290   102.04468
1045   0.07920   0.89581   -0.40498   0.18378   0.07920   0.89581   -0.40498   0.18378   102.02026
1046   0.07906   0.89633   -0.40452   0.18241   0.07906   0.89633   -0.40452   0.18241   102.10571
1047   0.07899   0.89596   -0.40529   0.18195   0.07899   0.89596   -0.40529   0.18195   102.08435
1048   0.07923   0.89590   -0.40498   0.18357   0.07923   0.89590   -0.40498   0.18357   102.03247
1049   0.07924   0.89605   -0.40556   0.18113   0.07924   0.89605   -0.40556   0.18113   102.05383
1050   0.07914   0.89679   -0.40474   0.17969   0.07914   0.89679   -0.40474   0.17969   102.09351
1051   0.07910   0.89666   -0.40443   0.18088   0.07910   0.89666   -0.40443   0.18088   102.05994
1052   0.07924   0.89627   -0.40532   0.18079   0.07924   0.89627   -0.40532   0.18079   101.96228
1053   0.07926   0.89547   -0.40556   0.18369   0.07926   0.89547   -0.40556   0.18369   102.07825
1054   0.07914   0.89581   -0.40562   0.18247   0.07914   0.89581   -0.40562   0.18247   102.15149
1055   0.07923   0.89569   -0.40556   0.18287   0.07923   0.89569   -0.40556   0.18287   102.07825
1056   0.07924   0.89581   -0.40513   0.18314   0.07924   0.89581   -0.40513   0.18314   102.02026
1057   0.07918   0.89593   -0.40519   0.18216   0.07918   0.89593   -0.40519   0.18216   102.10266
1058   0.07908   0.89581   -0.40535   0.18287   0.07908   0.89581   -0.40535   0.18287   102.13928
1059   0.07922   0.89630   -0.40407   0.18336   0.07922   0.89630   -0.40407   0.18336   102.04468
1060   0.07925   0.89642   -0.40434   0.18220   0.07925   0.89642   -0.40434   0.18220   101.99585
1061   0.07920   0.89587   -0.40519   0.18268   0.07920   0.89587   -0.40519   0.18268   102.09045
1062   0.07914   0.89612   -0.40458   0.18320   0.07914   0.89612   -0.40458   0.18320   102.15149
1063   0.07934   0.89615   -0.40407   0.18390   0.07934   0.89615   -0.40407   0.18390   102.02942
1064   0.07934   0.89669   -0.40428   0.18055   0.07934   0.89669   -0.40428   0.18055   102.02942
1065   0.07920   0.89657   -0.40468   0.18046   0.07920   0.89657   -0.40468   0.18046   102.12708
1066   0.07922   0.89615   -0.40510   0.18189   0.07922   0.89615   -0.40510   0.18189   102.06604
1067   0.07928   0.89682   -0.40367   0.18189   0.07928   0.89682   -0.40367   0.18189   102.02026
1068   0.07933   0.89630   -0.40452   0.18174   0.07933   0.89630   -0.40452   0.18174   102.04163
1069   0.07926   0.89618   -0.40516   0.18174   0.07926   0.89618   -0.40516   0.18174   102.06604
1070   0.07922   0.89605   -0.40492   0.18250   0.07922   0.89605   -0.40492   0.18250   102.02026
1071   0.07919   0.89602   -0.40513   0.18238   0.07919   0.89602   -0.40513   0.18238   102.04468
1072   0.07910   0.89630   -0.40492   0.18107   0.07910   0.89630   -0.40492   0.18107   102.09351
1073   0.07917   0.89657   -0.40403   0.18171   0.07917   0.89657   -0.40403   0.18171   102.05688
1074   0.07920   0.89636   -0.40410   0.18250   0.07920   0.89636   -0.40410   0.18250   102.03247
1075   0.07918   0.89648   -0.40449   0.18143   0.07918   0.89648   -0.40449   0.18143   102.04468
1076   0.07915   0.89673   -0.40403   0.18143   0.07915   0.89673   -0.40403   0.18143   102.08130
1077   0.07920   0.89608   -0.40489   0.18268   0.07920   0.89608   -0.40489   0.18268   102.02026
1078   0.07923   0.89688   -0.40403   0.18055   0.07923   0.89688   -0.40403   0.18055   102.04468
1079   0.07922   0.89688   -0.40248   0.18387   0.07922   0.89688   -0.40248   0.18387   102.07825
1080   0.07922   0.89682   -0.40309   0.18244   0.07922   0.89682   -0.40309   0.18244   102.11487
1081   0.07933   0.89685   -0.40248   0.18403   0.07933   0.89685   -0.40248   0.18403   101.99585
1082   0.07930   0.89651   -0.40339   0.18329   0.07930   0.89651   -0.40339   0.18329   102.05383
1083   0.07919   0.89718   -0.40303   0.18116   0.07919   0.89718   -0.40303   0.18116   102.06909
1084   0.07916   0.89724   -0.40266   0.18174   0.07916   0.89724   -0.40266   0.18174   102.04468
1085   0.07920   0.89697   -0.40281   0.18293   0.07920   0.89697   -0.40281   0.18293   101.92871
1086   0.07911   0.89724   -0.40254   0.18174   0.07911   0.89724   -0.40254   0.18174   102.03552
1087   0.07909   0.89752   -0.40260   0.18046   0.07909   0.89752   -0.40260   0.18046   102.11792
1088   0.07913   0.89734   -0.40263   0.18168   0.07913   0.89734   -0.40263   0.18168   101.99890
1089   0.07924   0.89709   -0.40220   0.18369   0.07924   0.89709   -0.40220   0.18369   101.96228
1090   0.07922   0.89727   -0.40175   0.18375   0.07922   0.89727   -0.40175   0.18375   102.04468
1091   0.07914   0.89703   -0.40269   0.18262   0.07914   0.89703   -0.40269   0.18262   102.06909
1092   0.07920   0.89697   -0.40251   0.18354   0.07920   0.89697   -0.40251   0.18354   102.02026
1093   0.07924   0.89694   -0.40364   0.18146   0.07924   0.89694   -0.40364   0.18146   101.99585
1094   0.07918   0.89746   -0.40178   0.18244   0.07918   0.89746   -0.40178   0.18244   102.09045
1095   0.07923   0.89734   -0.40117   0.18430   0.07923   0.89734   -0.40117   0.18430   102.06604
1096   0.07932   0.89773   -0.40019   0.18467   0.07932   0.89773   -0.40019   0.18467   101.96228
1097   0.07928   0.89724   -0.40104   0.18522   0.07928   0.89724   -0.40104   0.18522   102.02026
1098   0.07923   0.89691   -0.40208   0.18427   0.07923   0.89691   -0.40208   0.18427   102.09045
1099   0.07919   0.89682   -0.40214   0.18494   0.07919   0.89682   -0.40214   0.18494   102.01111
1100   0.07918   0.89660   -0.40272   0.18467   0.07918   0.89660   -0.40272   0.18467   102.02332
1101   0.07922   0.89721   -0.40165   0.18445   0.07922   0.89721   -0.40165   0.18445   102.03247
1102   0.07921   0.89651   -0.40306   0.18433   0.07921   0.89651   -0.40306   0.18433   102.07825
1103   0.07929   0.89648   -0.40312   0.18445   0.07929   0.89648   -0.40312   0.18445   101.99585
1104   0.07928   0.89645   -0.40364   0.18354   0.07928   0.89645   -0.40364   0.18354   102.04163
1105   0.07919   0.89688   -0.40416   0.18039   0.07919   0.89688   -0.40416   0.18039   102.10266
1106   0.07921   0.89734   -0.40287   0.18143   0.07921   0.89734   -0.40287   0.18143   101.99890
1107   0.07926   0.89752   -0.40138   0.18332   0.07926   0.89752   -0.40138   0.18332   101.98669
1108   0.07922   0.89749   -0.40193   0.18232   0.07922   0.89749   -0.40193   0.18232   102.03247
1109   0.07918   0.89758   -0.40138   0.18287   0.07918   0.89758   -0.40138   0.18287   102.04468
1110   0.07935   0.89669   -0.40297   0.18418   0.07935   0.89669   -0.40297   0.18418   101.98364
1111   0.07932   0.89666   -0.40303   0.18387   0.07932   0.89666   -0.40303   0.18387   102.01721
1112   0.07917   0.89679   -0.40373   0.18189   0.07917   0.89679   -0.40373   0.18189   102.10266
1113   0.07913   0.89666   -0.40266   0.18433   0.07913   0.89666   -0.40266   0.18433   102.09351
1114   0.07927   0.89798   -0.39946   0.18558   0.07927   0.89798   -0.39946   0.18558   101.91650
1115   0.07925   0.89743   -0.40110   0.18439   0.07925   0.89743   -0.40110   0.18439   101.96228
1116   0.07915   0.89718   -0.40257   0.18247   0.07915   0.89718   -0.40257   0.18247   102.11487
1117   0.07922   0.89734   -0.40110   0.18427   0.07922   0.89734   -0.40110   0.18427   101.98669
1118   0.07931   0.89718   -0.40263   0.18232   0.07931   0.89718   -0.40263   0.18232   101.93787
1119   0.07922   0.89749   -0.40199   0.18198   0.07922   0.89749   -0.40199   0.18198   102.02026
1120   0.07917   0.89712   -0.40287   0.18213   0.07917   0.89712   -0.40287   0.18213   102.08130
1121   0.07925   0.89709   -0.40229   0.18323   0.07925   0.89709   -0.40229   0.18323   102.03247
1122   0.07926   0.89743   -0.40181   0.18281   0.07926   0.89743   -0.40181   0.18281   101.99585
1123   0.07923   0.89807   -0.40068   0.18183   0.07923   0.89807   -0.40068   0.18183   101.98669
1124   0.07921   0.89770   -0.40135   0.18223   0.07921   0.89770   -0.40135   0.18223   102.06909
1125   0.07921   0.89691   -0.40248   0.18424   0.07921   0.89691   -0.40248   0.18424   102.04468
1126   0.07916   0.89724   -0.40266   0.18201   0.07916   0.89724   -0.40266   0.18201   101.99890
1127   0.07904   0.89746   -0.40223   0.18146   0.07904   0.89746   -0.40223   0.18146   102.04773
1128   0.07900   0.89691   -0.40193   0.18482   0.07900   0.89691   -0.40193   0.18482   102.05078
1129   0.07909   0.89679   -0.40266   0.18366   0.07909   0.89679   -0.40266   0.18366   102.04773
1130   0.07924   0.89749   -0.40266   0.18036   0.07924   0.89749   -0.40266   0.18036   102.06604
1131   0.07922   0.89740   -0.40223   0.18201   0.07922   0.89740   -0.40223   0.18201   102.03247
1132   0.07919   0.89758   -0.40165   0.18229   0.07919   0.89758   -0.40165   0.18229   101.96533
1133   0.07919   0.89789   -0.40077   0.18241   0.07919   0.89789   -0.40077   0.18241   101.98669
1134   0.07926   0.89731   -0.40205   0.18296   0.07926   0.89731   -0.40205   0.18296   102.05383
1135   0.07928   0.89776   -0.40104   0.18284   0.07928   0.89776   -0.40104   0.18284   102.02026
1136   0.07931   0.89724   -0.40196   0.18314   0.07931   0.89724   -0.40196   0.18314   101.98364
1137   0.07926   0.89737   -0.40239   0.18183   0.07926   0.89737   -0.40239   0.18183   102.04163
1138   0.07914   0.89767   -0.40162   0.18223   0.07914   0.89767   -0.40162   0.18223   102.08130
1139   0.07932   0.89743   -0.40101   0.18467   0.07932   0.89743   -0.40101   0.18467   101.97144
1140   0.07924   0.89727   -0.40187   0.18284   0.07924   0.89727   -0.40187   0.18284   101.98669
1141   0.07906   0.89825   -0.40083   0.18082   0.07906   0.89825   -0.40083   0.18082   102.05994
1142   0.07913   0.89801   -0.40132   0.18094   0.07913   0.89801   -0.40132   0.18094   102.06909
1143   0.07926   0.89782   -0.40062   0.18323   0.07926   0.89782   -0.40062   0.18323   101.92871
1144   0.07928   0.89798   -0.39991   0.18403   0.07928   0.89798   -0.39991   0.18403   101.91650
1145   0.07922   0.89755   -0.40095   0.18372   0.07922   0.89755   -0.40095   0.18372   102.05688
1146   0.07925   0.89789   -0.40025   0.18412   0.07925   0.89789   -0.40025   0.18412   101.99585
1147   0.07939   0.89761   -0.40101   0.18366   0.07939   0.89761   -0.40101   0.18366   101.92566
1148   0.07933   0.89798   -0.40068   0.18262   0.07933   0.89798   -0.40068   0.18262   101.95923
1149   0.07911   0.89746   -0.40153   0.18314   0.07911   0.89746   -0.40153   0.18314   102.09351
1150   0.07923   0.89715   -0.40172   0.18433   0.07923   0.89715   -0.40172   0.18433   102.04468
1151   0.07944   0.89767   -0.40046   0.18448   0.07944   0.89767   -0.40046   0.18448   101.95923
1152   0.07934   0.89779   -0.40135   0.18180   0.07934   0.89779   -0.40135   0.18180   102.00500
1153   0.07917   0.89776   -0.40114   0.18271   0.07917   0.89776   -0.40114   0.18271   102.06909
1154   0.07911   0.89779   -0.40095   0.18235   0.07911   0.89779   -0.40095   0.18235   102.00195
1155   0.07915   0.89828   -0.40031   0.18171   0.07915   0.89828   -0.40031   0.18171   101.92871
1156   0.07922   0.89795   -0.40117   0.18137   0.07922   0.89795   -0.40117   0.18137   102.03247
1157   0.07915   0.89789   -0.40034   0.18332   0.07915   0.89789   -0.40034   0.18332   102.04468
1158   0.07925   0.89721   -0.40117   0.18519   0.07925   0.89721   -0.40117   0.18519   101.97449
1159   0.07923   0.89734   -0.40153   0.18381   0.07923   0.89734   -0.40153   0.18381   102.03247
1160   0.07926   0.89776   -0.40046   0.18412   0.07926   0.89776   -0.40046   0.18412   102.04163
1161   0.07930   0.89785   -0.39985   0.18500   0.07930   0.89785   -0.39985   0.18500   102.00806
1162   0.07935   0.89779   -0.40007   0.18479   0.07935   0.89779   -0.40007   0.18479   101.98364
1163   0.07933   0.89749   -0.40141   0.18348   0.07933   0.89749   -0.40141   0.18348   102.04163
1164   0.07933   0.89822   -0.39964   0.18348   0.07933   0.89822   -0.39964   0.18348   101.99585
1165   0.07913   0.89822   -0.39967   0.18305   0.07913   0.89822   -0.39967   0.18305   101.94092
1166   0.07910   0.89807   -0.40068   0.18241   0.07910   0.89807   -0.40068   0.18241   101.97754
1167   0.07924   0.89801   -0.40089   0.18165   0.07924   0.89801   -0.40089   0.18165   102.02026
1168   0.07913   0.89779   -0.40071   0.18381   0.07913   0.89779   -0.40071   0.18381   101.99890
1169   0.07916   0.89761   -0.39982   0.18601   0.07916   0.89761   -0.39982   0.18601   101.92871
1170   0.07913   0.89764   -0.40052   0.18494   0.07913   0.89764   -0.40052   0.18494   102.06909
1171   0.07922   0.89776   -0.40052   0.18409   0.07922   0.89776   -0.40052   0.18409   102.07825
1172   0.07921   0.89825   -0.39933   0.18390   0.07921   0.89825   -0.39933   0.18390   101.92871
1173   0.07931   0.89782   -0.39967   0.18503   0.07931   0.89782   -0.39967   0.18503   101.90430
1174   0.07927   0.89810   -0.39979   0.18390   0.07927   0.89810   -0.39979   0.18390   102.03247
1175   0.07920   0.89828   -0.39952   0.18320   0.07920   0.89828   -0.39952   0.18320   102.04468
1176   0.07931   0.89804   -0.40013   0.18345   0.07931   0.89804   -0.40013   0.18345   101.93787
1177   0.07930   0.89798   -0.40071   0.18302   0.07930   0.89798   -0.40071   0.18302   101.95007
1178   0.07924   0.89804   -0.40043   0.18262   0.07924   0.89804   -0.40043   0.18262   102.05383
1179   0.07927   0.89789   -0.39976   0.18522   0.07927   0.89789   -0.39976   0.18522   102.04163
1180   0.07931   0.89828   -0.39894   0.18516   0.07931   0.89828   -0.39894   0.18516   101.92566
1181   0.07922   0.89795   -0.40059   0.18311   0.07922   0.89795   -0.40059   0.18311   101.98669
1182   0.07909   0.89807   -0.40043   0.18256   0.07909   0.89807   -0.40043   0.18256   102.04773
1183   0.07917   0.89798   -0.40022   0.18369   0.07917   0.89798   -0.40022   0.18369   102.03247
1184   0.07922   0.89834   -0.39991   0.18253   0.07922   0.89834   -0.39991   0.18253   101.97449
1185   0.07923   0.89785   -0.40107   0.18220   0.07923   0.89785   -0.40107   0.18220   101.98669
1186   0.07917   0.89837   -0.40004   0.18180   0.07917   0.89837   -0.40004   0.18180   102.03247
1187   0.07922   0.89807   -0.40040   0.18302   0.07922   0.89807   -0.40040   0.18302   101.92871
1188   0.07924   0.89810   -0.40065   0.18210   0.07924   0.89810   -0.40065   0.18210   101.98669
1189   0.07920   0.89819   -0.39967   0.18326   0.07920   0.89819   -0.39967   0.18326   102.03247
1190   0.07922   0.89795   -0.40065   0.18278   0.07922   0.89795   -0.40065   0.18278   101.99890
1191   0.07925   0.89810   -0.40065   0.18210   0.07925   0.89810   -0.40065   0.18210   101.97449
1192   0.07922   0.89789   -0.40117   0.18186   0.07922   0.89789   -0.40117   0.18186   102.03247
1193   0.07920   0.89792   -0.40077   0.18250   0.07920   0.89792   -0.40077   0.18250   102.07825
1194   0.07922   0.89819   -0.40019   0.18262   0.07922   0.89819   -0.40019   0.18262   101.99890
1195   0.07918   0.89865   -0.39915   0.18253   0.07918   0.89865   -0.39915   0.18253   101.95313
1196   0.07910   0.89850   -0.40004   0.18125   0.07910   0.89850   -0.40004   0.18125   102.02332
1197   0.07914   0.89846   -0.40004   0.18128   0.07914   0.89846   -0.40004   0.18128   102.01111
1198   0.07922   0.89837   -0.40083   0.18064   0.07922   0.89837   -0.40083   0.18064   101.90430
1199   0.07920   0.89819   -0.39970   0.18354   0.07920   0.89819   -0.39970   0.18354   101.98669
1200   0.07921   0.89785   -0.40098   0.18274   0.07921   0.89785   -0.40098   0.18274   102.06909
1201   0.07926   0.89782   -0.39958   0.18540   0.07926   0.89782   -0.39958   0.18540   102.00806
1202   0.07932   0.89749   -0.40046   0.18543   0.07932   0.89749   -0.40046   0.18543   101.93787
1203   0.07929   0.89773   -0.39998   0.18546   0.07929   0.89773   -0.39998   0.18546   101.99585
1204   0.07921   0.89813   -0.40052   0.18220   0.07921   0.89813   -0.40052   0.18220   102.07825
1205   0.07925   0.89785   -0.40068   0.18281   0.07925   0.89785   -0.40068   0.18281   101.99585
1206   0.07932   0.89795   -0.40074   0.18271   0.07932   0.89795   -0.40074   0.18271   101.95007
1207   0.07920   0.89749   -0.40214   0.18204   0.07920   0.89749   -0.40214   0.18204   102.05688
1208   0.07914   0.89755   -0.40138   0.18293   0.07914   0.89755   -0.40138   0.18293   102.10266
1209   0.07916   0.89755   -0.40077   0.18427   0.07916   0.89755   -0.40077   0.18427   101.98669
1210   0.07921   0.89737   -0.40037   0.18607   0.07921   0.89737   -0.40037   0.18607   101.94092
1211   0.07921   0.89712   -0.40168   0.18470   0.07921   0.89712   -0.40168   0.18470   102.06909
1212   0.07920   0.89755   -0.40101   0.18372   0.07920   0.89755   -0.40101   0.18372   102.03247
1213   0.07930   0.89724   -0.40104   0.18470   0.07930   0.89724   -0.40104   0.18470   102.00806
1214   0.07922   0.89764   -0.40129   0.18308   0.07922   0.89764   -0.40129   0.18308   101.98669
1215   0.07920   0.89834   -0.39988   0.18232   0.07920   0.89834   -0.39988   0.18232   102.03247
1216   0.07923   0.89789   -0.40101   0.18226   0.07923   0.89789   -0.40101   0.18226   102.00806
1217   0.07927   0.89813   -0.40043   0.18247   0.07927   0.89813   -0.40043   0.18247   101.95007
1218   0.07924   0.89779   -0.40153   0.18152   0.07924   0.89779   -0.40153   0.18152   101.98669
1219   0.07922   0.89755   -0.40175   0.18229   0.07922   0.89755   -0.40175   0.18229   102.00806
1220   0.07926   0.89779   -0.40019   0.18406   0.07926   0.89779   -0.40019   0.18406   101.98669
1221   0.07922   0.89795   -0.40098   0.18213   0.07922   0.89795   -0.40098   0.18213   102.00806
1222   0.07917   0.89776   -0.40138   0.18195   0.07917   0.89776   -0.40138   0.18195   102.03247
1223   0.07910   0.89749   -0.40220   0.18128   0.07910   0.89749   -0.40220   0.18128   102.01111
1224   0.07917   0.89737   -0.40144   0.18397   0.07917   0.89737   -0.40144   0.18397   101.98669
1225   0.07913   0.89715   -0.40236   0.18268   0.07913   0.89715   -0.40236   0.18268   102.08130
1226   0.07911   0.89734   -0.40220   0.18210   0.07911   0.89734   -0.40220   0.18210   102.10571
1227   0.07926   0.89776   -0.39970   0.18555   0.07926   0.89776   -0.39970   0.18555   101.93787
1228   0.07933   0.89721   -0.40138   0.18445   0.07933   0.89721   -0.40138   0.18445   101.99585
1229   0.07933   0.89746   -0.40104   0.18442   0.07933   0.89746   -0.40104   0.18442   102.07520
1230   0.07927   0.89779   -0.39995   0.18509   0.07927   0.89779   -0.39995   0.18509   102.00806
1231   0.07926   0.89715   -0.40187   0.18397   0.07926   0.89715   -0.40187   0.18397   102.02026
1232   0.07924   0.89734   -0.40211   0.18262   0.07924   0.89734   -0.40211   0.18262   102.00806
1233   0.07920   0.89764   -0.40123   0.18256   0.07920   0.89764   -0.40123   0.18256   102.09045
1234   0.07922   0.89721   -0.40172   0.18409   0.07922   0.89721   -0.40172   0.18409   102.00806
1235   0.07927   0.89721   -0.40208   0.18323   0.07927   0.89721   -0.40208   0.18323   101.95007
1236   0.07917   0.89785   -0.40080   0.18274   0.07917   0.89785   -0.40080   0.18274   101.97754
1237   0.07906   0.89776   -0.40162   0.18146   0.07906   0.89776   -0.40162   0.18146   102.09351
1238   0.07915   0.89746   -0.40135   0.18415   0.07915   0.89746   -0.40135   0.18415   101.99890
1239   0.07920   0.89724   -0.40065   0.18604   0.07920   0.89724   -0.40065   0.18604   101.98669
1240   0.07922   0.89685   -0.40239   0.18397   0.07922   0.89685   -0.40239   0.18397   102.06604
1241   0.07917   0.89740   -0.40190   0.18256   0.07917   0.89740   -0.40190   0.18256   102.06909
1242   0.07923   0.89764   -0.40114   0.18342   0.07923   0.89764   -0.40114   0.18342   101.95007
1243   0.07933   0.89740   -0.40089   0.18470   0.07933   0.89740   -0.40089   0.18470   101.95923
1244   0.07921   0.89712   -0.40281   0.18174   0.07921   0.89712   -0.40281   0.18174   102.10266
1245   0.07924   0.89709   -0.40196   0.18372   0.07924   0.89709   -0.40196   0.18372   102.04468
1246   0.07922   0.89761   -0.40101   0.18375   0.07922   0.89761   -0.40101   0.18375   101.94092
1247   0.07909   0.89676   -0.40324   0.18281   0.07909   0.89676   -0.40324   0.18281   102.04773
1248   0.07916   0.89663   -0.40300   0.18409   0.07916   0.89663   -0.40300   0.18409   102.09045
1249   0.07934   0.89691   -0.40202   0.18448   0.07934   0.89691   -0.40202   0.18448   102.01721
1250   0.07926   0.89709   -0.40126   0.18537   0.07926   0.89709   -0.40126   0.18537   101.98669
1251   0.07909   0.89676   -0.40263   0.18390   0.07909   0.89676   -0.40263   0.18390   102.08130
1252   0.07917   0.89767   -0.40089   0.18390   0.07917   0.89767   -0.40089   0.18390   102.03247
1253   0.07928   0.89706   -0.40193   0.18455   0.07928   0.89706   -0.40193   0.18455   101.98364
1254   0.07926   0.89724   -0.40159   0.18415   0.07926   0.89724   -0.40159   0.18415   102.03247
1255   0.07916   0.89721   -0.40260   0.18238   0.07916   0.89721   -0.40260   0.18238   102.06909
1256   0.07918   0.89694   -0.40330   0.18171   0.07918   0.89694   -0.40330   0.18171   102.04468
1257   0.07925   0.89676   -0.40287   0.18387   0.07925   0.89676   -0.40287   0.18387   101.98669
1258   0.07924   0.89712   -0.40361   0.17994   0.07924   0.89712   -0.40361   0.17994   102.05383
1259   0.07921   0.89645   -0.40422   0.18165   0.07921   0.89645   -0.40422   0.18165   102.13623
1260   0.07926   0.89712   -0.40254   0.18278   0.07926   0.89712   -0.40254   0.18278   101.96228
1261   0.07934   0.89715   -0.40202   0.18369   0.07934   0.89715   -0.40202   0.18369   101.95923
1262   0.07925   0.89676   -0.40272   0.18430   0.07925   0.89676   -0.40272   0.18430   102.09961
1263   0.07925   0.89642   -0.40300   0.18476   0.07925   0.89642   -0.40300   0.18476   102.14844
1264   0.07931   0.89679   -0.40284   0.18345   0.07931   0.89679   -0.40284   0.18345   101.96228
1265   0.07921   0.89743   -0.40239   0.18162   0.07921   0.89743   -0.40239   0.18162   102.02026
1266   0.07911   0.89743   -0.40297   0.18073   0.07911   0.89743   -0.40297   0.18073   102.10571
1267   0.07922   0.89770   -0.40190   0.18128   0.07922   0.89770   -0.40190   0.18128   102.03247
1268   0.07937   0.89636   -0.40425   0.18247   0.07937   0.89636   -0.40425   0.18247   101.98364
1269   0.07925   0.89712   -0.40324   0.18155   0.07925   0.89712   -0.40324   0.18155   101.98669
1270   0.07918   0.89758   -0.40190   0.18174   0.07918   0.89758   -0.40190   0.18174   102.06909
1271   0.07923   0.89679   -0.40297   0.18314   0.07923   0.89679   -0.40297   0.18314   102.05383
1272   0.07932   0.89706   -0.40269   0.18241   0.07932   0.89706   -0.40269   0.18241   101.97144
1273   0.07928   0.89700   -0.40345   0.18122   0.07928   0.89700   -0.40345   0.18122   102.04163
1274   0.07917   0.89712   -0.40275   0.18186   0.07917   0.89712   -0.40275   0.18186   102.04468
1275   0.07927   0.89676   -0.40336   0.18287   0.07927   0.89676   -0.40336   0.18287   102.02026
1276   0.07924   0.89651   -0.40391   0.18232   0.07924   0.89651   -0.40391   0.18232   102.00806
1277   0.07914   0.89669   -0.40449   0.18061   0.07914   0.89669   -0.40449   0.18061   102.05688
1278   0.07911   0.89654   -0.40437   0.18152   0.07911   0.89654   -0.40437   0.18152   102.04773
1279   0.07915   0.89645   -0.40407   0.18238   0.07915   0.89645   -0.40407   0.18238   102.02332
1280   0.07914   0.89663   -0.40425   0.18107   0.07914   0.89663   -0.40425   0.18107   102.02332
1281   0.07916   0.89734   -0.40294   0.18073   0.07916   0.89734   -0.40294   0.18073   102.04468
1282   0.07921   0.89685   -0.40339   0.18186   0.07921   0.89685   -0.40339   0.18186   102.02026
1283   0.07919   0.89657   -0.40385   0.18213   0.07919   0.89657   -0.40385   0.18213   102.04468
1284   0.07921   0.89703   -0.40385   0.18049   0.07921   0.89703   -0.40385   0.18049   102.06909
1285   0.07920   0.89700   -0.40370   0.18088   0.07920   0.89700   -0.40370   0.18088   102.06909
1286   0.07927   0.89767   -0.40129   0.18265   0.07927   0.89767   -0.40129   0.18265   101.92871
1287   0.07922   0.89685   -0.40373   0.18116   0.07922   0.89685   -0.40373   0.18116   102.04468
1288   0.07915   0.89697   -0.40321   0.18198   0.07915   0.89697   -0.40321   0.18198   102.09351
1289   0.07919   0.89679   -0.40376   0.18198   0.07919   0.89679   -0.40376   0.18198   102.05688
1290   0.07924   0.89715   -0.40287   0.18183   0.07924   0.89715   -0.40287   0.18183   101.98669
1291   0.07920   0.89618   -0.40416   0.18323   0.07920   0.89618   -0.40416   0.18323   102.09045
1292   0.07907   0.89691   -0.40407   0.18070   0.07907   0.89691   -0.40407   0.18070   102.13013
1293   0.07921   0.89657   -0.40464   0.18003   0.07921   0.89657   -0.40464   0.18003   102.02026
1294   0.07922   0.89618   -0.40574   0.18036   0.07922   0.89618   -0.40574   0.18036   101.98669
1295   0.07913   0.89700   -0.40382   0.18052   0.07913   0.89700   -0.40382   0.18052   102.06909
1296   0.07914   0.89688   -0.40440   0.17978   0.07914   0.89688   -0.40440   0.17978   102.12708
1297   0.07923   0.89639   -0.40477   0.18140   0.07923   0.89639   -0.40477   0.18140   102.00806
1298   0.07923   0.89679   -0.40376   0.18186   0.07923   0.89679   -0.40376   0.18186   101.99890
1299   0.07917   0.89660   -0.40483   0.18043   0.07917   0.89660   -0.40483   0.18043   102.11487
1300   0.07914   0.89676   -0.40382   0.18155   0.07914   0.89676   -0.40382   0.18155   102.10266
1301   0.07925   0.89633   -0.40477   0.18189   0.07925   0.89633   -0.40477   0.18189   101.99585
1302   0.07928   0.89654   -0.40419   0.18125   0.07928   0.89654   -0.40419   0.18125   102.02026
1303   0.07918   0.89666   -0.40403   0.18165   0.07918   0.89666   -0.40403   0.18165   102.10266
1304   0.07916   0.89669   -0.40440   0.18061   0.07916   0.89669   -0.40440   0.18061   102.09045
1305   0.07920   0.89648   -0.40504   0.17994   0.07920   0.89648   -0.40504   0.17994   102.05688
1306   0.07914   0.89642   -0.40501   0.18018   0.07914   0.89642   -0.40501   0.18018   102.04468
1307   0.07914   0.89654   -0.40455   0.18143   0.07914   0.89654   -0.40455   0.18143   102.10266
1308   0.07917   0.89657   -0.40483   0.18055   0.07917   0.89657   -0.40483   0.18055   101.99890
1309   0.07918   0.89676   -0.40425   0.18064   0.07918   0.89676   -0.40425   0.18064   102.04468
1310   0.07922   0.89624   -0.40407   0.18329   0.07922   0.89624   -0.40407   0.18329   102.10266
1311   0.07927   0.89584   -0.40513   0.18284   0.07927   0.89584   -0.40513   0.18284   102.09961
1312   0.07932   0.89621   -0.40400   0.18403   0.07932   0.89621   -0.40400   0.18403   102.02942
1313   0.07929   0.89676   -0.40333   0.18296   0.07929   0.89676   -0.40333   0.18296   102.02942
1314   0.07928   0.89633   -0.40391   0.18360   0.07928   0.89633   -0.40391   0.18360   102.06604
1315   0.07928   0.89612   -0.40510   0.18189   0.07928   0.89612   -0.40510   0.18189   102.03247
1316   0.07928   0.89648   -0.40458   0.18101   0.07928   0.89648   -0.40458   0.18101   102.04163
1317   0.07920   0.89642   -0.40519   0.18036   0.07920   0.89642   -0.40519   0.18036   102.07825
1318   0.07920   0.89590   -0.40593   0.18122   0.07920   0.89590   -0.40593   0.18122   102.09045
1319   0.07922   0.89676   -0.40367   0.18216   0.07922   0.89676   -0.40367   0.18216   101.98669
1320   0.07913   0.89651   -0.40513   0.17954   0.07913   0.89651   -0.40513   0.17954   102.04773
1321   0.07915   0.89660   -0.40471   0.18018   0.07915   0.89660   -0.40471   0.18018   102.10266
1322   0.07914   0.89654   -0.40449   0.18088   0.07914   0.89654   -0.40449   0.18088   102.05688
1323   0.07928   0.89630   -0.40486   0.18177   0.07928   0.89630   -0.40486   0.18177   101.95007
1324   0.07917   0.89654   -0.40513   0.18036   0.07917   0.89654   -0.40513   0.18036   102.05688
1325   0.07914   0.89679   -0.40483   0.17951   0.07914   0.89679   -0.40483   0.17951   102.12708
1326   0.07924   0.89602   -0.40483   0.18290   0.07924   0.89602   -0.40483   0.18290   102.07825
1327   0.07929   0.89590   -0.40492   0.18336   0.07929   0.89590   -0.40492   0.18336   102.02942
1328   0.07909   0.89651   -0.40510   0.18030   0.07909   0.89651   -0.40510   0.18030   102.08130
1329   0.07912   0.89630   -0.40446   0.18235   0.07912   0.89630   -0.40446   0.18235   102.15149
1330   0.07935   0.89584   -0.40544   0.18299   0.07935   0.89584   -0.40544   0.18299   102.01721
1331   0.07936   0.89612   -0.40477   0.18278   0.07936   0.89612   -0.40477   0.18278   102.05078
1332   0.07922   0.89624   -0.40510   0.18143   0.07922   0.89624   -0.40510   0.18143   102.12402
1333   0.07908   0.89633   -0.40489   0.18192   0.07908   0.89633   -0.40489   0.18192   102.08130
1334   0.07917   0.89654   -0.40434   0.18122   0.07917   0.89654   -0.40434   0.18122   101.99890
1335   0.07926   0.89639   -0.40544   0.17963   0.07926   0.89639   -0.40544   0.17963   102.05383
1336   0.07918   0.89645   -0.40495   0.18067   0.07918   0.89645   -0.40495   0.18067   102.13623
1337   0.07919   0.89618   -0.40556   0.18113   0.07919   0.89618   -0.40556   0.18113   102.12708
1338   0.07924   0.89605   -0.40541   0.18174   0.07924   0.89605   -0.40541   0.18174   102.03247
1339   0.07928   0.89633   -0.40556   0.18009   0.07928   0.89633   -0.40556   0.18009   102.07825
1340   0.07922   0.89657   -0.40486   0.18024   0.07922   0.89657   -0.40486   0.18024   102.06604
1341   0.07923   0.89633   -0.40461   0.18198   0.07923   0.89633   -0.40461   0.18198   102.00806
1342   0.07923   0.89633   -0.40587   0.17905   0.07923   0.89633   -0.40587   0.17905   102.04468
1343   0.07923   0.89673   -0.40428   0.18119   0.07923   0.89673   -0.40428   0.18119   102.06604
1344   0.07927   0.89636   -0.40492   0.18104   0.07927   0.89636   -0.40492   0.18104   102.02026
1345   0.07926   0.89590   -0.40614   0.18073   0.07926   0.89590   -0.40614   0.18073   102.00806
1346   0.07919   0.89630   -0.40541   0.18015   0.07919   0.89630   -0.40541   0.18015   102.06909
1347   0.07921   0.89639   -0.40577   0.17963   0.07921   0.89639   -0.40577   0.17963   102.06909
1348   0.07929   0.89596   -0.40553   0.18168   0.07929   0.89596   -0.40553   0.18168   102.07825
1349   0.07909   0.89621   -0.40532   0.18079   0.07909   0.89621   -0.40532   0.18079   102.01416
1350   0.07905   0.89645   -0.40541   0.17945   0.07905   0.89645   -0.40541   0.17945   102.09351
1351   0.07921   0.89621   -0.40483   0.18183   0.07921   0.89621   -0.40483   0.18183   102.10266
1352   0.07938   0.89618   -0.40571   0.18027   0.07938   0.89618   -0.40571   0.18027   101.99280
1353   0.07925   0.89648   -0.40513   0.17994   0.07925   0.89648   -0.40513   0.17994   102.06604
1354   0.07913   0.89615   -0.40596   0.17985   0.07913   0.89615   -0.40596   0.17985   102.11487
1355   0.07918   0.89602   -0.40599   0.18076   0.07918   0.89602   -0.40599   0.18076   102.08130
1356   0.07933   0.89532   -0.40715   0.18131   0.07933   0.89532   -0.40715   0.18131   101.99585
1357   0.07926   0.89630   -0.40516   0.18094   0.07926   0.89630   -0.40516   0.18094   102.00806
1358   0.07916   0.89633   -0.40532   0.18009   0.07916   0.89633   -0.40532   0.18009   102.14844
1359   0.07921   0.89557   -0.40623   0.18226   0.07921   0.89557   -0.40623   0.18226   102.07825
1360   0.07925   0.89520   -0.40648   0.18299   0.07925   0.89520   -0.40648   0.18299   102.00806
1361   0.07918   0.89569   -0.40568   0.18235   0.07918   0.89569   -0.40568   0.18235   102.06909
1362   0.07916   0.89608   -0.40498   0.18192   0.07916   0.89608   -0.40498   0.18192   102.14844
1363   0.07930   0.89575   -0.40654   0.18055   0.07930   0.89575   -0.40654   0.18055   102.04163
1364   0.07931   0.89612   -0.40571   0.18064   0.07931   0.89612   -0.40571   0.18064   101.96228
1365   0.07895   0.89633   -0.40513   0.18067   0.07895   0.89633   -0.40513   0.18067   102.09656
1366   0.07913   0.89602   -0.40510   0.18238   0.07913   0.89602   -0.40510   0.18238   102.12708
1367   0.07941   0.89605   -0.40461   0.18308   0.07941   0.89605   -0.40461   0.18308   102.03857
1368   0.07927   0.89599   -0.40556   0.18168   0.07927   0.89599   -0.40556   0.18168   102.05383
1369   0.07914   0.89554   -0.40635   0.18168   0.07914   0.89554   -0.40635   0.18168   102.09351
1370   0.07922   0.89514   -0.40660   0.18360   0.07922   0.89514   -0.40660   0.18360   102.09045
1371   0.07934   0.89517   -0.40645   0.18320   0.07934   0.89517   -0.40645   0.18320   102.09961
1372   0.07923   0.89550   -0.40614   0.18207   0.07923   0.89550   -0.40614   0.18207   102.06604
1373   0.07919   0.89566   -0.40617   0.18207   0.07919   0.89566   -0.40617   0.18207   102.06909
1374   0.07923   0.89557   -0.40532   0.18436   0.07923   0.89557   -0.40532   0.18436   102.04468
1375   0.07919   0.89581   -0.40532   0.18278   0.07919   0.89581   -0.40532   0.18278   102.06909
1376   0.07914   0.89599   -0.40602   0.18036   0.07914   0.89599   -0.40602   0.18036   102.13928
1377   0.07914   0.89627   -0.40474   0.18207   0.07914   0.89627   -0.40474   0.18207   102.04468
1378   0.07922   0.89633   -0.40498   0.18149   0.07922   0.89633   -0.40498   0.18149   102.03247
1379   0.07922   0.89578   -0.40550   0.18210   0.07922   0.89578   -0.40550   0.18210   102.10266
1380   0.07921   0.89618   -0.40449   0.18284   0.07921   0.89618   -0.40449   0.18284   102.11487
1381   0.07922   0.89584   -0.40599   0.18131   0.07922   0.89584   -0.40599   0.18131   102.05688
1382   0.07926   0.89569   -0.40654   0.18070   0.07926   0.89569   -0.40654   0.18070   102.02026
1383   0.07924   0.89581   -0.40669   0.18003   0.07924   0.89581   -0.40669   0.18003   102.07825
1384   0.07916   0.89572   -0.40629   0.18049   0.07916   0.89572   -0.40629   0.18049   102.14844
1385   0.07930   0.89557   -0.40645   0.18140   0.07930   0.89557   -0.40645   0.18140   101.99585
1386   0.07921   0.89596   -0.40556   0.18149   0.07921   0.89596   -0.40556   0.18149   102.02026
1387   0.07913   0.89624   -0.40571   0.17969   0.07913   0.89624   -0.40571   0.17969   102.10571
1388   0.07909   0.89581   -0.40706   0.17954   0.07909   0.89581   -0.40706   0.17954   102.10571
1389   0.07920   0.89581   -0.40632   0.18046   0.07920   0.89581   -0.40632   0.18046   102.01111
1390   0.07915   0.89572   -0.40638   0.18088   0.07915   0.89572   -0.40638   0.18088   102.05688
1391   0.07909   0.89599   -0.40614   0.18030   0.07909   0.89599   -0.40614   0.18030   102.12708
1392   0.07916   0.89630   -0.40559   0.17997   0.07916   0.89630   -0.40559   0.17997   102.08130
1393   0.07921   0.89572   -0.40559   0.18287   0.07921   0.89572   -0.40559   0.18287   102.03247
1394   0.07921   0.89612   -0.40602   0.17985   0.07921   0.89612   -0.40602   0.17985   101.99890
1395   0.07917   0.89572   -0.40529   0.18384   0.07917   0.89572   -0.40529   0.18384   102.13928
1396   0.07928   0.89572   -0.40510   0.18345   0.07928   0.89572   -0.40510   0.18345   102.06604
1397   0.07931   0.89596   -0.40538   0.18192   0.07931   0.89596   -0.40538   0.18192   102.04163
1398   0.07925   0.89550   -0.40562   0.18397   0.07925   0.89550   -0.40562   0.18397   102.09961
1399   0.07922   0.89520   -0.40651   0.18348   0.07922   0.89520   -0.40651   0.18348   102.13623
1400   0.07928   0.89581   -0.40495   0.18418   0.07928   0.89581   -0.40495   0.18418   102.06604
1401   0.07925   0.89584   -0.40608   0.18085   0.07925   0.89584   -0.40608   0.18085   102.09961
1402   0.07911   0.89627   -0.40571   0.18006   0.07911   0.89627   -0.40571   0.18006   102.06909
1403   0.07915   0.89612   -0.40516   0.18232   0.07915   0.89612   -0.40516   0.18232   102.09351
1404   0.07920   0.89624   -0.40602   0.17954   0.07920   0.89624   -0.40602   0.17954   102.03247
1405   0.07916   0.89639   -0.40510   0.18030   0.07916   0.89639   -0.40510   0.18030   102.10266
1406   0.07922   0.89639   -0.40431   0.18204   0.07922   0.89639   -0.40431   0.18204   102.09045
1407   0.07924   0.89624   -0.40526   0.18143   0.07924   0.89624   -0.40526   0.18143   101.98669
1408   0.07927   0.89633   -0.40522   0.18119   0.07927   0.89633   -0.40522   0.18119   102.04163
1409   0.07918   0.89645   -0.40443   0.18140   0.07918   0.89645   -0.40443   0.18140   102.12708
1410   0.07922   0.89633   -0.40510   0.18091   0.07922   0.89633   -0.40510   0.18091   102.06604
1411   0.07925   0.89673   -0.40364   0.18207   0.07925   0.89673   -0.40364   0.18207   102.03247
1412   0.07930   0.89602   -0.40458   0.18381   0.07930   0.89602   -0.40458   0.18381   102.04163
1413   0.07921   0.89621   -0.40458   0.18259   0.07921   0.89621   -0.40458   0.18259   102.13623
1414   0.07928   0.89630   -0.40413   0.18366   0.07928   0.89630   -0.40413   0.18366   102.02026
1415   0.07929   0.89593   -0.40532   0.18274   0.07929   0.89593   -0.40532   0.18274   101.99585
1416   0.07911   0.89657   -0.40480   0.18064   0.07911   0.89657   -0.40480   0.18064   102.06909
1417   0.07912   0.89645   -0.40486   0.18113   0.07912   0.89645   -0.40486   0.18113   102.13928
1418   0.07924   0.89636   -0.40498   0.18104   0.07924   0.89636   -0.40498   0.18104   101.99585
1419   0.07929   0.89608   -0.40559   0.18055   0.07929   0.89608   -0.40559   0.18055   101.99585
1420   0.07918   0.89663   -0.40480   0.18021   0.07918   0.89663   -0.40480   0.18021   102.09045
1421   0.07920   0.89657   -0.40428   0.18140   0.07920   0.89657   -0.40428   0.18140   102.10266
1422   0.07926   0.89633   -0.40422   0.18284   0.07926   0.89633   -0.40422   0.18284   101.99585
1423   0.07927   0.89624   -0.40501   0.18162   0.07927   0.89624   -0.40501   0.18162   102.03247
1424   0.07919   0.89651   -0.40455   0.18107   0.07919   0.89651   -0.40455   0.18107   102.10266
1425   0.07921   0.89651   -0.40434   0.18174   0.07921   0.89651   -0.40434   0.18174   102.07825
1426   0.07929   0.89648   -0.40477   0.18082   0.07929   0.89648   -0.40477   0.18082   102.00806
1427   0.07927   0.89642   -0.40461   0.18192   0.07927   0.89642   -0.40461   0.18192   102.02026
1428   0.07922   0.89688   -0.40394   0.18079   0.07922   0.89688   -0.40394   0.18079   102.11487
1429   0.07925   0.89694   -0.40336   0.18152   0.07925   0.89694   -0.40336   0.18152   102.06604
1430   0.07922   0.89679   -0.40507   0.17914   0.07922   0.89679   -0.40507   0.17914   102.03247
1431   0.07914   0.89724   -0.40321   0.18036   0.07914   0.89724   -0.40321   0.18036   102.05688
1432   0.07915   0.89666   -0.40431   0.18101   0.07915   0.89666   -0.40431   0.18101   102.08130
1433   0.07923   0.89691   -0.40370   0.18104   0.07923   0.89691   -0.40370   0.18104   101.99890
1434   0.07918   0.89676   -0.40370   0.18146   0.07918   0.89676   -0.40370   0.18146   102.02332
1435   0.07917   0.89709   -0.40352   0.18067   0.07917   0.89709   -0.40352   0.18067   102.06909
1436   0.07922   0.89654   -0.40382   0.18268   0.07922   0.89654   -0.40382   0.18268   102.03247
1437   0.07923   0.89654   -0.40437   0.18177   0.07923   0.89654   -0.40437   0.18177   102.00806
1438   0.07921   0.89621   -0.40580   0.17994   0.07921   0.89621   -0.40580   0.17994   102.06909
1439   0.07917   0.89673   -0.40385   0.18177   0.07917   0.89673   -0.40385   0.18177   102.08130
1440   0.07930   0.89740   -0.40205   0.18238   0.07930   0.89740   -0.40205   0.18238   101.96228
1441   0.07922   0.89697   -0.40327   0.18152   0.07922   0.89697   -0.40327   0.18152   102.02026
1442   0.07916   0.89718   -0.40342   0.18030   0.07916   0.89718   -0.40342   0.18030   102.08130
1443   0.07907   0.89700   -0.40358   0.18082   0.07907   0.89700   -0.40358   0.18082   102.07214
1444   0.07922   0.89685   -0.40376   0.18177   0.07922   0.89685   -0.40376   0.18177   101.95007
1445   0.07918   0.89645   -0.40474   0.18088   0.07918   0.89645   -0.40474   0.18088   102.02332
1446   0.07898   0.89694   -0.40364   0.18110   0.07898   0.89694   -0.40364   0.18110   102.13013
1447   0.07900   0.89679   -0.40315   0.18271   0.07900   0.89679   -0.40315   0.18271   102.03857
1448   0.07923   0.89645   -0.40342   0.18345   0.07923   0.89645   -0.40342   0.18345   101.98669
1449   0.07933   0.89691   -0.40266   0.18387   0.07933   0.89691   -0.40266   0.18387   102.08740
1450   0.07920   0.89639   -0.40419   0.18290   0.07920   0.89639   -0.40419   0.18290   102.13623
1451   0.07924   0.89627   -0.40407   0.18351   0.07924   0.89627   -0.40407   0.18351   102.05383
1452   0.07930   0.89663   -0.40300   0.18384   0.07930   0.89663   -0.40300   0.18384   101.96228
1453   0.07931   0.89697   -0.40263   0.18360   0.07931   0.89697   -0.40263   0.18360   102.08740
1454   0.07922   0.89715   -0.40318   0.18073   0.07922   0.89715   -0.40318   0.18073   102.09045
1455   0.07926   0.89706   -0.40330   0.18152   0.07926   0.89706   -0.40330   0.18152   101.99585
1456   0.07922   0.89685   -0.40394   0.18091   0.07922   0.89685   -0.40394   0.18091   101.99890
1457   0.07915   0.89703   -0.40284   0.18238   0.07915   0.89703   -0.40284   0.18238   102.06909
1458   0.07921   0.89691   -0.40251   0.18390   0.07921   0.89691   -0.40251   0.18390   102.06909
1459   0.07927   0.89673   -0.40300   0.18403   0.07927   0.89673   -0.40300   0.18403   102.00806
1460   0.07922   0.89685   -0.40394   0.18049   0.07922   0.89685   -0.40394   0.18049   102.04468
1461   0.07922   0.89715   -0.40303   0.18119   0.07922   0.89715   -0.40303   0.18119   102.07825
1462   0.07923   0.89743   -0.40162   0.18351   0.07923   0.89743   -0.40162   0.18351   101.99890
1463   0.07930   0.89669   -0.40394   0.18177   0.07930   0.89669   -0.40394   0.18177   102.04163
1464   0.07932   0.89669   -0.40370   0.18226   0.07932   0.89669   -0.40370   0.18226   102.05383
1465   0.07929   0.89663   -0.40379   0.18235   0.07929   0.89663   -0.40379   0.18235   102.05383
1466   0.07927   0.89697   -0.40303   0.18216   0.07927   0.89697   -0.40303   0.18216   101.99585
1467   0.07934   0.89709   -0.40287   0.18253   0.07934   0.89709   -0.40287   0.18253   102.02942
1468   0.07933   0.89673   -0.40321   0.18296   0.07933   0.89673   -0.40321   0.18296   102.12097
1469   0.07926   0.89743   -0.40184   0.18244   0.07926   0.89743   -0.40184   0.18244   102.00806
1470   0.07923   0.89685   -0.40358   0.18152   0.07923   0.89685   -0.40358   0.18152   102.00806
1471   0.07915   0.89685   -0.40358   0.18143   0.07915   0.89685   -0.40358   0.18143   102.08130
1472   0.07918   0.89697   -0.40306   0.18180   0.07918   0.89697   -0.40306   0.18180   102.09045
1473   0.07922   0.89691   -0.40312   0.18235   0.07922   0.89691   -0.40312   0.18235   102.00806
1474   0.07923   0.89706   -0.40260   0.18262   0.07923   0.89706   -0.40260   0.18262   102.00806
1475   0.07919   0.89746   -0.40236   0.18116   0.07919   0.89746   -0.40236   0.18116   102.07825
1476   0.07926   0.89663   -0.40266   0.18473   0.07926   0.89663   -0.40266   0.18473   102.09961
1477   0.07932   0.89685   -0.40349   0.18180   0.07932   0.89685   -0.40349   0.18180   101.99585
1478   0.07924   0.89734   -0.40193   0.18299   0.07924   0.89734   -0.40193   0.18299   101.99585
1479   0.07920   0.89727   -0.40321   0.18082   0.07920   0.89727   -0.40321   0.18082   102.10266
1480   0.07923   0.89712   -0.40266   0.18244   0.07923   0.89712   -0.40266   0.18244   102.05383
1481   0.07931   0.89694   -0.40278   0.18320   0.07931   0.89694   -0.40278   0.18320   101.98364
1482   0.07920   0.89770   -0.40144   0.18223   0.07920   0.89770   -0.40144   0.18223   102.02026
1483   0.07916   0.89727   -0.40242   0.18192   0.07916   0.89727   -0.40242   0.18192   102.08130
1484   0.07918   0.89724   -0.40196   0.18317   0.07918   0.89724   -0.40196   0.18317   101.97449
1485   0.07921   0.89691   -0.40318   0.18220   0.07921   0.89691   -0.40318   0.18220   101.97449
1486   0.07916   0.89737   -0.40220   0.18220   0.07916   0.89737   -0.40220   0.18220   102.02332
1487   0.07913   0.89727   -0.40220   0.18247   0.07913   0.89727   -0.40220   0.18247   102.08130
1488   0.07924   0.89789   -0.40104   0.18229   0.07924   0.89789   -0.40104   0.18229   101.96228
1489   0.07920   0.89706   -0.40300   0.18226   0.07920   0.89706   -0.40300   0.18226   102.01111
1490   0.07918   0.89724   -0.40257   0.18250   0.07918   0.89724   -0.40257   0.18250   102.05688
1491   0.07923   0.89782   -0.40074   0.18320   0.07923   0.89782   -0.40074   0.18320   101.99890
1492   0.07925   0.89798   -0.40040   0.18363   0.07925   0.89798   -0.40040   0.18363   101.93787
1493   0.07923   0.89776   -0.40077   0.18293   0.07923   0.89776   -0.40077   0.18293   102.03247
1494   0.07921   0.89727   -0.40251   0.18183   0.07921   0.89727   -0.40251   0.18183   102.09045
1495   0.07928   0.89764   -0.40159   0.18223   0.07928   0.89764   -0.40159   0.18223   101.98364
1496   0.07919   0.89792   -0.40052   0.18311   0.07919   0.89792   -0.40052   0.18311   102.01111
1497   0.07918   0.89721   -0.40263   0.18198   0.07918   0.89721   -0.40263   0.18198   102.05688
1498   0.07913   0.89743   -0.40226   0.18204   0.07913   0.89743   -0.40226   0.18204   102.06909
1499   0.07919   0.89709   -0.40281   0.18241   0.07919   0.89709   -0.40281   0.18241   101.99890
1500   0.07915   0.89789   -0.40095   0.18244   0.07915   0.89789   -0.40095   0.18244   101.99890
1501   0.07912   0.89737   -0.40272   0.18159   0.07912   0.89737   -0.40272   0.18159   102.04773
1502   0.07922   0.89755   -0.40168   0.18247   0.07922   0.89755   -0.40168   0.18247   102.03247
1503   0.07926   0.89752   -0.40107   0.18384   0.07926   0.89752   -0.40107   0.18384   101.92871
1504   0.07918   0.89752   -0.40172   0.18281   0.07918   0.89752   -0.40172   0.18281   102.09045
1505   0.07917   0.89773   -0.40156   0.18168   0.07917   0.89773   -0.40156   0.18168   102.06909
1506   0.07927   0.89789   -0.40068   0.18317   0.07927   0.89789   -0.40068   0.18317   101.91650
1507   0.07927   0.89801   -0.40019   0.18375   0.07927   0.89801   -0.40019   0.18375   101.92871
1508   0.07922   0.89749   -0.40223   0.18186   0.07922   0.89749   -0.40223   0.18186   102.05688
1509   0.07917   0.89770   -0.40153   0.18271   0.07917   0.89770   -0.40153   0.18271   102.08130
1510   0.07925   0.89828   -0.39979   0.18329   0.07925   0.89828   -0.39979   0.18329   101.89209
1511   0.07921   0.89770   -0.40110   0.18278   0.07921   0.89770   -0.40110   0.18278   101.97449
1512   0.07906   0.89834   -0.40013   0.18189   0.07906   0.89834   -0.40013   0.18189   102.09351
1513   0.07915   0.89731   -0.40184   0.18372   0.07915   0.89731   -0.40184   0.18372   102.03552
1514   0.07918   0.89770   -0.40059   0.18406   0.07918   0.89770   -0.40059   0.18406   101.95313
1515   0.07923   0.89770   -0.40211   0.18116   0.07923   0.89770   -0.40211   0.18116   102.00806
1516   0.07917   0.89798   -0.40062   0.18241   0.07917   0.89798   -0.40062   0.18241   102.05688
1517   0.07920   0.89819   -0.39970   0.18369   0.07920   0.89819   -0.39970   0.18369   101.98669
1518   0.07924   0.89813   -0.40049   0.18247   0.07924   0.89813   -0.40049   0.18247   101.92871
1519   0.07922   0.89764   -0.40162   0.18174   0.07922   0.89764   -0.40162   0.18174   102.04468
1520   0.07923   0.89831   -0.39982   0.18284   0.07923   0.89831   -0.39982   0.18284   102.00806
1521   0.07924   0.89767   -0.40068   0.18415   0.07924   0.89767   -0.40068   0.18415   101.98669
1522   0.07925   0.89785   -0.40104   0.18216   0.07925   0.89785   -0.40104   0.18216   101.99585
1523   0.07922   0.89764   -0.40162   0.18186   0.07922   0.89764   -0.40162   0.18186   102.04468
1524   0.07922   0.89810   -0.40071   0.18210   0.07922   0.89810   -0.40071   0.18210   101.95007
1525   0.07922   0.89807   -0.40052   0.18287   0.07922   0.89807   -0.40052   0.18287   101.94092
1526   0.07910   0.89789   -0.40138   0.18180   0.07910   0.89789   -0.40138   0.18180   102.01111
1527   0.07913   0.89795   -0.40107   0.18186   0.07913   0.89795   -0.40107   0.18186   102.02332
1528   0.07905   0.89755   -0.40202   0.18165   0.07905   0.89755   -0.40202   0.18165   101.98975
1529   0.07911   0.89801   -0.39982   0.18430   0.07911   0.89801   -0.39982   0.18430   101.96533
1530   0.07925   0.89789   -0.40037   0.18357   0.07925   0.89789   -0.40037   0.18357   102.04468
1531   0.07932   0.89770   -0.40068   0.18394   0.07932   0.89770   -0.40068   0.18394   102.01721
1532   0.07927   0.89816   -0.39918   0.18461   0.07927   0.89816   -0.39918   0.18461   101.92871
1533   0.07922   0.89740   -0.40223   0.18189   0.07922   0.89740   -0.40223   0.18189   102.04468
1534   0.07920   0.89758   -0.40159   0.18241   0.07920   0.89758   -0.40159   0.18241   102.10266
1535   0.07931   0.89834   -0.39979   0.18271   0.07931   0.89834   -0.39979   0.18271   101.93787
1536   0.07934   0.89807   -0.40056   0.18268   0.07934   0.89807   -0.40056   0.18268   101.95007
1537   0.07922   0.89807   -0.40037   0.18302   0.07922   0.89807   -0.40037   0.18302   102.04468
1538   0.07918   0.89746   -0.40083   0.18494   0.07918   0.89746   -0.40083   0.18494   102.08130
1539   0.07922   0.89831   -0.39930   0.18378   0.07922   0.89831   -0.39930   0.18378   101.89514
1540   0.07923   0.89743   -0.40153   0.18354   0.07923   0.89743   -0.40153   0.18354   101.96228
1541   0.07914   0.89850   -0.40037   0.18070   0.07914   0.89850   -0.40037   0.18070   101.99890
1542   0.07913   0.89782   -0.40120   0.18204   0.07913   0.89782   -0.40120   0.18204   102.05688
1543   0.07924   0.89795   -0.40101   0.18232   0.07924   0.89795   -0.40101   0.18232   101.94092
1544   0.07926   0.89825   -0.40016   0.18229   0.07926   0.89825   -0.40016   0.18229   101.93787
1545   0.07913   0.89779   -0.40065   0.18320   0.07913   0.89779   -0.40065   0.18320   102.08130
1546   0.07927   0.89782   -0.39921   0.18644   0.07927   0.89782   -0.39921   0.18644   101.98364
1547   0.07942   0.89798   -0.40034   0.18320   0.07942   0.89798   -0.40034   0.18320   101.96838
1548   0.07935   0.89798   -0.40007   0.18354   0.07935   0.89798   -0.40007   0.18354   101.99585
1549   0.07909   0.89834   -0.39998   0.18235   0.07909   0.89834   -0.39998   0.18235   102.03552
1550   0.07923   0.89749   -0.40052   0.18534   0.07923   0.89749   -0.40052   0.18534   101.97449
1551   0.07933   0.89773   -0.40046   0.18415   0.07933   0.89773   -0.40046   0.18415   102.00806
1552   0.07931   0.89850   -0.39885   0.18403   0.07931   0.89850   -0.39885   0.18403   101.99585
1553   0.07916   0.89801   -0.40040   0.18305   0.07916   0.89801   -0.40040   0.18305   102.02332
1554   0.07917   0.89804   -0.40046   0.18262   0.07917   0.89804   -0.40046   0.18262   101.95313
1555   0.07916   0.89789   -0.40080   0.18284   0.07916   0.89789   -0.40080   0.18284   101.97754
1556   0.07922   0.89816   -0.40028   0.18253   0.07922   0.89816   -0.40028   0.18253   102.10266
1557   0.07928   0.89831   -0.39933   0.18363   0.07928   0.89831   -0.39933   0.18363   101.95007
1558   0.07924   0.89837   -0.39970   0.18250   0.07924   0.89837   -0.39970   0.18250   101.95007
1559   0.07919   0.89822   -0.40025   0.18204   0.07919   0.89822   -0.40025   0.18204   101.98669
1560   0.07920   0.89743   -0.40159   0.18332   0.07920   0.89743   -0.40159   0.18332   102.07825
1561   0.07937   0.89755   -0.40034   0.18528   0.07937   0.89755   -0.40034   0.18528   101.93787
1562   0.07935   0.89779   -0.40010   0.18461   0.07935   0.89779   -0.40010   0.18461   101.95923
1563   0.07933   0.89792   -0.39946   0.18558   0.07933   0.89792   -0.39946   0.18558   102.06299
1564   0.07942   0.89801   -0.39995   0.18375   0.07942   0.89801   -0.39995   0.18375   101.99280
1565   0.07920   0.89776   -0.40129   0.18241   0.07920   0.89776   -0.40129   0.18241   101.91650
1566   0.07902   0.89770   -0.40153   0.18177   0.07902   0.89770   -0.40153   0.18177   101.99280
1567   0.07912   0.89801   -0.40019   0.18332   0.07912   0.89801   -0.40019   0.18332   102.09351
1568   0.07926   0.89813   -0.39988   0.18360   0.07926   0.89813   -0.39988   0.18360   101.93787
1569   0.07916   0.89785   -0.40089   0.18290   0.07916   0.89785   -0.40089   0.18290   101.92871
1570   0.07909   0.89816   -0.40040   0.18238   0.07909   0.89816   -0.40040   0.18238   102.01416
1571   0.07917   0.89773   -0.40040   0.18397   0.07917   0.89773   -0.40040   0.18397   102.10266
1572   0.07926   0.89795   -0.40028   0.18366   0.07926   0.89795   -0.40028   0.18366   101.93787
1573   0.07929   0.89779   -0.40089   0.18326   0.07929   0.89779   -0.40089   0.18326   101.93787
1574   0.07918   0.89731   -0.40199   0.18268   0.07918   0.89731   -0.40199   0.18268   102.06909
1575   0.07922   0.89804   -0.40065   0.18274   0.07922   0.89804   -0.40065   0.18274   102.02026
1576   0.07927   0.89764   -0.40107   0.18332   0.07927   0.89764   -0.40107   0.18332   101.97449
1577   0.07928   0.89837   -0.40034   0.18122   0.07928   0.89837   -0.40034   0.18122   101.96228
1578   0.07918   0.89761   -0.40150   0.18244   0.07918   0.89761   -0.40150   0.18244   102.04468
1579   0.07920   0.89810   -0.40028   0.18305   0.07920   0.89810   -0.40028   0.18305   101.99890
1580   0.07919   0.89795   -0.40052   0.18332   0.07919   0.89795   -0.40052   0.18332   101.95313
1581   0.07914   0.89773   -0.40092   0.18336   0.07914   0.89773   -0.40092   0.18336   101.98975
1582   0.07917   0.89789   -0.40040   0.18354   0.07917   0.89789   -0.40040   0.18354   101.98669
1583   0.07917   0.89822   -0.39933   0.18433   0.07917   0.89822   -0.39933   0.18433   101.97754
1584   0.07917   0.89789   -0.40089   0.18265   0.07917   0.89789   -0.40089   0.18265   101.99890
1585   0.07917   0.89761   -0.40062   0.18473   0.07917   0.89761   -0.40062   0.18473   102.02332
1586   0.07927   0.89779   -0.39998   0.18473   0.07927   0.89779   -0.39998   0.18473   102.02026
1587   0.07925   0.89767   -0.40089   0.18403   0.07925   0.89767   -0.40089   0.18403   101.96228
1588   0.07923   0.89724   -0.40220   0.18290   0.07923   0.89724   -0.40220   0.18290   102.03247
1589   0.07923   0.89758   -0.40168   0.18189   0.07923   0.89758   -0.40168   0.18189   102.05383
1590   0.07925   0.89776   -0.40043   0.18418   0.07925   0.89776   -0.40043   0.18418   101.96228
1591   0.07925   0.89721   -0.40181   0.18363   0.07925   0.89721   -0.40181   0.18363   102.04468
1592   0.07922   0.89776   -0.40144   0.18207   0.07922   0.89776   -0.40144   0.18207   102.06604
1593   0.07913   0.89688   -0.40257   0.18375   0.07913   0.89688   -0.40257   0.18375   102.10571
1594   0.07921   0.89715   -0.40220   0.18308   0.07921   0.89715   -0.40220   0.18308   101.96228
1595   0.07916   0.89694   -0.40202   0.18491   0.07916   0.89694   -0.40202   0.18491   102.02332
1596   0.07913   0.89712   -0.40278   0.18204   0.07913   0.89712   -0.40278   0.18204   102.06909
1597   0.07912   0.89645   -0.40385   0.18302   0.07912   0.89645   -0.40385   0.18302   102.06909
1598   0.07922   0.89666   -0.40306   0.18348   0.07922   0.89666   -0.40306   0.18348   101.98669
1599   0.07922   0.89761   -0.40135   0.18281   0.07922   0.89761   -0.40135   0.18281   101.98669
1600   0.07912   0.89721   -0.40226   0.18262   0.07912   0.89721   -0.40226   0.18262   102.13928
1601   0.07918   0.89718   -0.40159   0.18427   0.07918   0.89718   -0.40159   0.18427   102.02332
1602   0.07933   0.89734   -0.40172   0.18351   0.07933   0.89734   -0.40172   0.18351   101.93787
1603   0.07927   0.89724   -0.40287   0.18125   0.07927   0.89724   -0.40287   0.18125   102.02026
1604   0.07920   0.89746   -0.40178   0.18314   0.07920   0.89746   -0.40178   0.18314   102.05688
1605   0.07926   0.89721   -0.40196   0.18342   0.07926   0.89721   -0.40196   0.18342   102.04163
1606   0.07922   0.89676   -0.40324   0.18299   0.07922   0.89676   -0.40324   0.18299   102.03247
1607   0.07914   0.89654   -0.40425   0.18174   0.07914   0.89654   -0.40425   0.18174   102.08130
1608   0.07908   0.89642   -0.40413   0.18250   0.07908   0.89642   -0.40413   0.18250   102.05994
1609   0.07918   0.89746   -0.40205   0.18226   0.07918   0.89746   -0.40205   0.18226   102.01111
1610   0.07914   0.89706   -0.40254   0.18284   0.07914   0.89706   -0.40254   0.18284   102.01111
1611   0.07913   0.89773   -0.40077   0.18302   0.07913   0.89773   -0.40077   0.18302   102.04773
1612   0.07914   0.89712   -0.40165   0.18445   0.07914   0.89712   -0.40165   0.18445   102.05688
1613   0.07927   0.89669   -0.40248   0.18479   0.07927   0.89669   -0.40248   0.18479   102.04163
1614   0.07928   0.89639   -0.40367   0.18339   0.07928   0.89639   -0.40367   0.18339   102.06604
1615   0.07923   0.89666   -0.40266   0.18473   0.07923   0.89666   -0.40266   0.18473   102.09045
1616   0.07927   0.89669   -0.40324   0.18336   0.07927   0.89669   -0.40324   0.18336   102.03247
1617   0.07928   0.89734   -0.40196   0.18262   0.07928   0.89734   -0.40196   0.18262   101.96228
1618   0.07922   0.89703   -0.40309   0.18213   0.07922   0.89703   -0.40309   0.18213   102.06604
1619   0.07924   0.89712   -0.40251   0.18293   0.07924   0.89712   -0.40251   0.18293   101.98669
1620   0.07922   0.89697   -0.40269   0.18351   0.07922   0.89697   -0.40269   0.18351   101.96228
1621   0.07914   0.89706   -0.40269   0.18223   0.07914   0.89706   -0.40269   0.18223   102.03552
1622   0.07911   0.89706   -0.40358   0.18097   0.07911   0.89706   -0.40358   0.18097   102.09351
1623   0.07922   0.89727   -0.40257   0.18168   0.07922   0.89727   -0.40257   0.18168   102.02026
1624   0.07919   0.89657   -0.40336   0.18320   0.07919   0.89657   -0.40336   0.18320   101.99890
1625   0.07914   0.89700   -0.40303   0.18226   0.07914   0.89700   -0.40303   0.18226   102.06909
1626   0.07913   0.89657   -0.40364   0.18284   0.07913   0.89657   -0.40364   0.18284   102.09351
1627   0.07924   0.89685   -0.40318   0.18281   0.07924   0.89685   -0.40318   0.18281   101.97449
1628   0.07930   0.89673   -0.40336   0.18274   0.07930   0.89673   -0.40336   0.18274   102.02942
1629   0.07929   0.89685   -0.40355   0.18195   0.07929   0.89685   -0.40355   0.18195   102.08740
1630   0.07922   0.89657   -0.40339   0.18305   0.07922   0.89657   -0.40339   0.18305   102.09045
1631   0.07925   0.89669   -0.40300   0.18323   0.07925   0.89669   -0.40300   0.18323   101.97449
1632   0.07933   0.89724   -0.40190   0.18326   0.07933   0.89724   -0.40190   0.18326   102.01721
1633   0.07926   0.89679   -0.40306   0.18281   0.07926   0.89679   -0.40306   0.18281   102.13623
1634   0.07924   0.89657   -0.40333   0.18390   0.07924   0.89657   -0.40333   0.18390   102.03247
1635   0.07923   0.89651   -0.40431   0.18149   0.07923   0.89651   -0.40431   0.18149   101.99890
1636   0.07914   0.89724   -0.40309   0.18116   0.07914   0.89724   -0.40309   0.18116   101.99890
1637   0.07913   0.89676   -0.40349   0.18210   0.07913   0.89676   -0.40349   0.18210   102.08130
1638   0.07914   0.89700   -0.40294   0.18220   0.07914   0.89700   -0.40294   0.18220   102.04468
1639   0.07920   0.89636   -0.40422   0.18250   0.07920   0.89636   -0.40422   0.18250   102.03247
1640   0.07917   0.89669   -0.40403   0.18122   0.07917   0.89669   -0.40403   0.18122   102.11487
1641   0.07921   0.89666   -0.40388   0.18204   0.07921   0.89666   -0.40388   0.18204   102.05688
1642   0.07921   0.89666   -0.40370   0.18250   0.07921   0.89666   -0.40370   0.18250   102.03247
1643   0.07922   0.89676   -0.40419   0.18079   0.07922   0.89676   -0.40419   0.18079   102.04468
1644   0.07920   0.89663   -0.40370   0.18238   0.07920   0.89663   -0.40370   0.18238   102.09045
1645   0.07925   0.89758   -0.40190   0.18213   0.07925   0.89758   -0.40190   0.18213   101.96228
1646   0.07914   0.89740   -0.40303   0.18061   0.07914   0.89740   -0.40303   0.18061   102.04468
1647   0.07900   0.89651   -0.40413   0.18210   0.07900   0.89651   -0.40413   0.18210   102.05078
1648   0.07910   0.89639   -0.40410   0.18278   0.07910   0.89639   -0.40410   0.18278   102.06909
1649   0.07929   0.89676   -0.40330   0.18290   0.07929   0.89676   -0.40330   0.18290   102.02026
1650   0.07916   0.89612   -0.40544   0.18116   0.07916   0.89612   -0.40544   0.18116   102.05688
1651   0.07905   0.89636   -0.40492   0.18073   0.07905   0.89636   -0.40492   0.18073   102.10571
1652   0.07912   0.89651   -0.40443   0.18125   0.07912   0.89651   -0.40443   0.18125   102.02332
1653   0.07925   0.89630   -0.40489   0.18183   0.07925   0.89630   -0.40489   0.18183   101.95007
1654   0.07918   0.89673   -0.40370   0.18186   0.07918   0.89673   -0.40370   0.18186   102.05688
1655   0.07917   0.89669   -0.40321   0.18372   0.07917   0.89669   -0.40321   0.18372   102.10266
1656   0.07929   0.89633   -0.40345   0.18418   0.07929   0.89633   -0.40345   0.18418   101.98364
1657   0.07932   0.89624   -0.40403   0.18406   0.07932   0.89624   -0.40403   0.18406   101.99585
1658   0.07930   0.89578   -0.40498   0.18345   0.07930   0.89578   -0.40498   0.18345   102.11182
1659   0.07924   0.89630   -0.40410   0.18348   0.07924   0.89630   -0.40410   0.18348   102.10266
1660   0.07938   0.89566   -0.40544   0.18323   0.07938   0.89566   -0.40544   0.18323   102.01721
1661   0.07928   0.89663   -0.40495   0.18012   0.07928   0.89663   -0.40495   0.18012   102.00806
1662   0.07917   0.89666   -0.40495   0.17969   0.07917   0.89666   -0.40495   0.17969   102.11487
1663   0.07920   0.89666   -0.40410   0.18101   0.07920   0.89666   -0.40410   0.18101   102.07825
1664   0.07925   0.89673   -0.40437   0.18039   0.07925   0.89673   -0.40437   0.18039   102.04468
1665   0.07922   0.89694   -0.40364   0.18131   0.07922   0.89694   -0.40364   0.18131   102.03247
1666   0.07916   0.89630   -0.40565   0.18003   0.07916   0.89630   -0.40565   0.18003   102.14844
1667   0.07928   0.89663   -0.40455   0.18094   0.07928   0.89663   -0.40455   0.18094   102.03247
1668   0.07932   0.89679   -0.40400   0.18119   0.07932   0.89679   -0.40400   0.18119   102.02942
1669   0.07930   0.89645   -0.40468   0.18125   0.07930   0.89645   -0.40468   0.18125   102.05383
1670   0.07918   0.89709   -0.40330   0.18097   0.07918   0.89709   -0.40330   0.18097   102.06909
1671   0.07933   0.89627   -0.40455   0.18238   0.07933   0.89627   -0.40455   0.18238   102.00806
1672   0.07931   0.89642   -0.40526   0.18039   0.07931   0.89642   -0.40526   0.18039   102.04163
1673   0.07927   0.89688   -0.40397   0.18055   0.07927   0.89688   -0.40397   0.18055   102.05383
1674   0.07922   0.89593   -0.40559   0.18125   0.07922   0.89593   -0.40559   0.18125   102.03247
1675   0.07921   0.89627   -0.40431   0.18281   0.07921   0.89627   -0.40431   0.18281   102.03247
1676   0.07919   0.89651   -0.40480   0.18067   0.07919   0.89651   -0.40480   0.18067   102.05688
1677   0.07912   0.89636   -0.40519   0.18021   0.07912   0.89636   -0.40519   0.18021   102.11487
1678   0.07922   0.89633   -0.40446   0.18244   0.07922   0.89633   -0.40446   0.18244   101.99890
1679   0.07918   0.89691   -0.40394   0.18058   0.07918   0.89691   -0.40394   0.18058   102.03247
1680   0.07912   0.89636   -0.40535   0.17988   0.07912   0.89636   -0.40535   0.17988   102.13928
1681   0.07918   0.89642   -0.40452   0.18146   0.07918   0.89642   -0.40452   0.18146   102.08130
1682   0.07932   0.89633   -0.40394   0.18326   0.07932   0.89633   -0.40394   0.18326   101.99585
1683   0.07926   0.89676   -0.40388   0.18159   0.07926   0.89676   -0.40388   0.18159   102.05383
1684   0.07922   0.89651   -0.40449   0.18097   0.07922   0.89651   -0.40449   0.18097   102.13623
1685   0.07930   0.89538   -0.40611   0.18342   0.07930   0.89538   -0.40611   0.18342   102.07825
1686   0.07937   0.89575   -0.40574   0.18201   0.07937   0.89575   -0.40574   0.18201   102.00500
1687   0.07926   0.89657   -0.40553   0.17902   0.07926   0.89657   -0.40553   0.17902   102.09045
1688   0.07919   0.89657   -0.40501   0.17988   0.07919   0.89657   -0.40501   0.17988   102.12708
1689   0.07926   0.89630   -0.40584   0.17982   0.07926   0.89630   -0.40584   0.17982   102.03247
1690   0.07928   0.89596   -0.40547   0.18192   0.07928   0.89596   -0.40547   0.18192   102.02026
1691   0.07911   0.89627   -0.40599   0.17902   0.07911   0.89627   -0.40599   0.17902   102.13928
1692   0.07914   0.89621   -0.40562   0.18052   0.07914   0.89621   -0.40562   0.18052   102.12708
1693   0.07920   0.89642   -0.40474   0.18119   0.07920   0.89642   -0.40474   0.18119   102.04468
1694   0.07922   0.89605   -0.40587   0.18018   0.07922   0.89605   -0.40587   0.18018   102.03247
1695   0.07918   0.89621   -0.40565   0.18046   0.07918   0.89621   -0.40565   0.18046   102.09045
1696   0.07919   0.89587   -0.40593   0.18076   0.07919   0.89587   -0.40593   0.18076   102.12708
1697   0.07925   0.89578   -0.40568   0.18250   0.07925   0.89578   -0.40568   0.18250   101.99585
1698   0.07923   0.89578   -0.40605   0.18119   0.07923   0.89578   -0.40605   0.18119   102.07825
1699   0.07920   0.89608   -0.40602   0.17985   0.07920   0.89608   -0.40602   0.17985   102.14844
1700   0.07924   0.89587   -0.40614   0.18064   0.07924   0.89587   -0.40614   0.18064   102.04468
1701   0.07929   0.89618   -0.40593   0.18024   0.07929   0.89618   -0.40593   0.18024   102.00806
1702   0.07922   0.89602   -0.40632   0.17951   0.07922   0.89602   -0.40632   0.17951   102.10266
1703   0.07918   0.89639   -0.40492   0.18088   0.07918   0.89639   -0.40492   0.18088   102.09045
1704   0.07916   0.89642   -0.40501   0.18033   0.07916   0.89642   -0.40501   0.18033   102.02332
1705   0.07913   0.89654   -0.40486   0.18024   0.07913   0.89654   -0.40486   0.18024   102.08130
1706   0.07914   0.89624   -0.40565   0.18003   0.07914   0.89624   -0.40565   0.18003   102.10266
1707   0.07916   0.89636   -0.40553   0.18009   0.07916   0.89636   -0.40553   0.18009   102.04468
1708   0.07922   0.89648   -0.40483   0.18036   0.07922   0.89648   -0.40483   0.18036   102.04468
1709   0.07917   0.89618   -0.40587   0.17978   0.07917   0.89618   -0.40587   0.17978   102.10266
1710   0.07917   0.89633   -0.40623   0.17814   0.07917   0.89633   -0.40623   0.17814   102.13928
1711   0.07924   0.89651   -0.40440   0.18143   0.07924   0.89651   -0.40440   0.18143   102.02026
1712   0.07925   0.89608   -0.40593   0.18055   0.07925   0.89608   -0.40593   0.18055   102.03247
1713   0.07921   0.89615   -0.40614   0.17936   0.07921   0.89615   -0.40614   0.17936   102.12402
1714   0.07920   0.89627   -0.40553   0.18033   0.07920   0.89627   -0.40553   0.18033   102.10266
1715   0.07930   0.89526   -0.40751   0.18094   0.07930   0.89526   -0.40751   0.18094   101.97144
1716   0.07929   0.89618   -0.40449   0.18296   0.07929   0.89618   -0.40449   0.18296   102.04163
1717   0.07917   0.89630   -0.40443   0.18216   0.07917   0.89630   -0.40443   0.18216   102.11487
1718   0.07908   0.89648   -0.40480   0.18052   0.07908   0.89648   -0.40480   0.18052   102.08130
1719   0.07921   0.89596   -0.40635   0.17969   0.07921   0.89596   -0.40635   0.17969   102.02026
1720   0.07919   0.89599   -0.40648   0.17948   0.07919   0.89599   -0.40648   0.17948   102.03247
1721   0.07910   0.89599   -0.40587   0.18064   0.07910   0.89599   -0.40587   0.18064   102.15149
1722   0.07922   0.89599   -0.40553   0.18131   0.07922   0.89599   -0.40553   0.18131   102.04468
1723   0.07922   0.89587   -0.40620   0.18125   0.07922   0.89587   -0.40620   0.18125   101.98669
1724   0.07925   0.89557   -0.40602   0.18241   0.07925   0.89557   -0.40602   0.18241   102.07825
1725   0.07920   0.89572   -0.40562   0.18271   0.07920   0.89572   -0.40562   0.18271   102.18201
1726   0.07927   0.89541   -0.40672   0.18201   0.07927   0.89541   -0.40672   0.18201   102.03247
1727   0.07925   0.89608   -0.40559   0.18058   0.07925   0.89608   -0.40559   0.18058   102.00806
1728   0.07902   0.89615   -0.40648   0.17862   0.07902   0.89615   -0.40648   0.17862   102.09656
1729   0.07912   0.89621   -0.40443   0.18247   0.07912   0.89621   -0.40443   0.18247   102.11487
1730   0.07931   0.89572   -0.40565   0.18220   0.07931   0.89572   -0.40565   0.18220   102.05383
1731   0.07933   0.89599   -0.40529   0.18201   0.07933   0.89599   -0.40529   0.18201   102.06299
1732   0.07911   0.89657   -0.40480   0.18049   0.07911   0.89657   -0.40480   0.18049   102.06909
1733   0.07914   0.89630   -0.40474   0.18125   0.07914   0.89630   -0.40474   0.18125   102.05688
1734   0.07920   0.89615   -0.40519   0.18159   0.07920   0.89615   -0.40519   0.18159   102.03247
1735   0.07924   0.89645   -0.40480   0.18076   0.07924   0.89645   -0.40480   0.18076   102.04468
1736   0.07923   0.89685   -0.40382   0.18140   0.07923   0.89685   -0.40382   0.18140   102.05383
1737   0.07925   0.89624   -0.40468   0.18216   0.07925   0.89624   -0.40468   0.18216   102.02026
1738   0.07923   0.89651   -0.40495   0.18003   0.07923   0.89651   -0.40495   0.18003   102.05383
1739   0.07920   0.89688   -0.40440   0.17951   0.07920   0.89688   -0.40440   0.17951   102.10266
1740   0.07923   0.89666   -0.40391   0.18180   0.07923   0.89666   -0.40391   0.18180   102.03247
1741   0.07923   0.89612   -0.40464   0.18314   0.07923   0.89612   -0.40464   0.18314   102.00806
1742   0.07922   0.89682   -0.40403   0.18091   0.07922   0.89682   -0.40403   0.18091   102.06604
1743   0.07920   0.89627   -0.40513   0.18088   0.07920   0.89627   -0.40513   0.18088   102.12708
1744   0.07923   0.89673   -0.40410   0.18146   0.07923   0.89673   -0.40410   0.18146   101.96228
1745   0.07918   0.89660   -0.40403   0.18180   0.07918   0.89660   -0.40403   0.18180   102.03247
1746   0.07910   0.89660   -0.40461   0.18049   0.07910   0.89660   -0.40461   0.18049   102.09351
1747   0.07925   0.89605   -0.40535   0.18149   0.07925   0.89605   -0.40535   0.18149   102.09045
1748   0.07933   0.89669   -0.40394   0.18165   0.07933   0.89669   -0.40394   0.18165   101.99585
1749   0.07907   0.89679   -0.40358   0.18155   0.07907   0.89679   -0.40358   0.18155   102.07214
1750   0.07909   0.89660   -0.40361   0.18317   0.07909   0.89660   -0.40361   0.18317   102.11792
1751   0.07930   0.89642   -0.40373   0.18390   0.07930   0.89642   -0.40373   0.18390   102.08740
1752   0.07942   0.89642   -0.40446   0.18183   0.07942   0.89642   -0.40446   0.18183   101.99280
1753   0.07926   0.89666   -0.40413   0.18165   0.07926   0.89666   -0.40413   0.18165   102.07825
1754   0.07913   0.89654   -0.40458   0.18119   0.07913   0.89654   -0.40458   0.18119   102.12708
1755   0.07917   0.89612   -0.40446   0.18278   0.07917   0.89612   -0.40446   0.18278   102.08130
1756   0.07933   0.89648   -0.40468   0.18149   0.07933   0.89648   -0.40468   0.18149   101.99585
1757   0.07923   0.89673   -0.40394   0.18171   0.07923   0.89673   -0.40394   0.18171   102.06604
1758   0.07912   0.89642   -0.40458   0.18168   0.07912   0.89642   -0.40458   0.18168   102.09351
1759   0.07916   0.89660   -0.40446   0.18116   0.07916   0.89660   -0.40446   0.18116   101.99890
1760   0.07913   0.89682   -0.40425   0.18039   0.07913   0.89682   -0.40425   0.18039   102.04773
1761   0.07916   0.89645   -0.40455   0.18159   0.07916   0.89645   -0.40455   0.18159   102.05688
1762   0.07916   0.89615   -0.40522   0.18152   0.07916   0.89615   -0.40522   0.18152   102.05688
1763   0.07936   0.89627   -0.40468   0.18220   0.07936   0.89627   -0.40468   0.18220   101.99280
1764   0.07927   0.89654   -0.40483   0.18024   0.07927   0.89654   -0.40483   0.18024   102.09045
1765   0.07899   0.89666   -0.40489   0.17985   0.07899   0.89666   -0.40489   0.17985   102.07214
1766   0.07914   0.89654   -0.40376   0.18265   0.07914   0.89654   -0.40376   0.18265   102.03552
1767   0.07931   0.89688   -0.40394   0.18082   0.07931   0.89688   -0.40394   0.18082   102.04163
1768   0.07918   0.89669   -0.40407   0.18125   0.07918   0.89669   -0.40407   0.18125   102.06909
1769   0.07907   0.89694   -0.40342   0.18155   0.07907   0.89694   -0.40342   0.18155   102.07214
1770   0.07924   0.89676   -0.40385   0.18134   0.07924   0.89676   -0.40385   0.18134   101.98669
1771   0.07922   0.89694   -0.40379   0.18125   0.07922   0.89694   -0.40379   0.18125   102.03247
1772   0.07910   0.89639   -0.40483   0.18122   0.07910   0.89639   -0.40483   0.18122   102.08130
1773   0.07913   0.89654   -0.40376   0.18305   0.07913   0.89654   -0.40376   0.18305   102.03552
1774   0.07922   0.89654   -0.40367   0.18329   0.07922   0.89654   -0.40367   0.18329   102.00806
1775   0.07915   0.89666   -0.40449   0.18039   0.07915   0.89666   -0.40449   0.18039   102.10266
1776   0.07910   0.89682   -0.40400   0.18091   0.07910   0.89682   -0.40400   0.18091   102.09351
1777   0.07922   0.89694   -0.40297   0.18244   0.07922   0.89694   -0.40297   0.18244   101.99890
1778   0.07921   0.89718   -0.40345   0.18052   0.07921   0.89718   -0.40345   0.18052   101.98669
1779   0.07920   0.89700   -0.40349   0.18128   0.07920   0.89700   -0.40349   0.18128   102.07825
1780   0.07913   0.89688   -0.40407   0.18085   0.07913   0.89688   -0.40407   0.18085   102.09351
1781   0.07927   0.89724   -0.40315   0.18134   0.07927   0.89724   -0.40315   0.18134   101.93787
1782   0.07926   0.89666   -0.40425   0.18101   0.07926   0.89666   -0.40425   0.18101   101.99585
1783   0.07917   0.89718   -0.40315   0.18104   0.07917   0.89718   -0.40315   0.18104   102.09045
1784   0.07918   0.89734   -0.40266   0.18159   0.07918   0.89734   -0.40266   0.18159   102.04468
1785   0.07923   0.89663   -0.40379   0.18198   0.07923   0.89663   -0.40379   0.18198   101.99890
1786   0.07919   0.89703   -0.40306   0.18174   0.07919   0.89703   -0.40306   0.18174   102.02332
1787   0.07906   0.89663   -0.40407   0.18183   0.07906   0.89663   -0.40407   0.18183   102.10571
1788   0.07918   0.89660   -0.40477   0.18027   0.07918   0.89660   -0.40477   0.18027   102.04468
1789   0.07914   0.89727   -0.40297   0.18149   0.07914   0.89727   -0.40297   0.18149   102.03552
1790   0.07917   0.89727   -0.40318   0.18055   0.07917   0.89727   -0.40318   0.18055   102.04468
1791   0.07914   0.89688   -0.40300   0.18253   0.07914   0.89688   -0.40300   0.18253   102.08130
1792   0.07917   0.89721   -0.40272   0.18162   0.07917   0.89721   -0.40272   0.18162   102.02332
1793   0.07924   0.89749   -0.40266   0.18116   0.07924   0.89749   -0.40266   0.18116   102.00806
1794   0.07919   0.89688   -0.40370   0.18110   0.07919   0.89688   -0.40370   0.18110   102.06909
1795   0.07921   0.89721   -0.40275   0.18171   0.07921   0.89721   -0.40275   0.18171   102.06909
1796   0.07922   0.89685   -0.40358   0.18125   0.07922   0.89685   -0.40358   0.18125   102.02026
1797   0.07920   0.89746   -0.40239   0.18149   0.07920   0.89746   -0.40239   0.18149   102.03247
1798   0.07921   0.89709   -0.40291   0.18171   0.07921   0.89709   -0.40291   0.18171   102.06909
1799   0.07921   0.89718   -0.40214   0.18278   0.07921   0.89718   -0.40214   0.18278   102.02026
1800   0.07919   0.89676   -0.40254   0.18409   0.07919   0.89676   -0.40254   0.18409   102.05688
1801   0.07910   0.89715   -0.40260   0.18238   0.07910   0.89715   -0.40260   0.18238   102.08130
1802   0.07921   0.89700   -0.40245   0.18360   0.07921   0.89700   -0.40245   0.18360   102.03247
1803   0.07920   0.89758   -0.40184   0.18189   0.07920   0.89758   -0.40184   0.18189   101.94092
1804   0.07918   0.89718   -0.40272   0.18204   0.07918   0.89718   -0.40272   0.18204   102.01111
1805   0.07913   0.89682   -0.40379   0.18091   0.07913   0.89682   -0.40379   0.18091   102.11487
1806   0.07918   0.89703   -0.40281   0.18278   0.07918   0.89703   -0.40281   0.18278   102.02332
1807   0.07924   0.89721   -0.40229   0.18265   0.07924   0.89721   -0.40229   0.18265   101.97449
1808   0.07916   0.89712   -0.40297   0.18137   0.07916   0.89712   -0.40297   0.18137   102.05688
1809   0.07918   0.89697   -0.40358   0.18107   0.07918   0.89697   -0.40358   0.18107   102.10266
1810   0.07920   0.89731   -0.40239   0.18210   0.07920   0.89731   -0.40239   0.18210   102.01111
1811   0.07925   0.89709   -0.40309   0.18192   0.07925   0.89709   -0.40309   0.18192   101.97449
1812   0.07919   0.89673   -0.40394   0.18201   0.07919   0.89673   -0.40394   0.18201   102.09045
1813   0.07914   0.89718   -0.40251   0.18284   0.07914   0.89718   -0.40251   0.18284   102.05688
1814   0.07918   0.89712   -0.40165   0.18482   0.07918   0.89712   -0.40165   0.18482   101.99890
1815   0.07916   0.89709   -0.40229   0.18314   0.07916   0.89709   -0.40229   0.18314   102.02332
1816   0.07921   0.89715   -0.40263   0.18244   0.07921   0.89715   -0.40263   0.18244   102.06909
1817   0.07918   0.89782   -0.40037   0.18400   0.07918   0.89782   -0.40037   0.18400   102.02332
1818   0.07925   0.89718   -0.40172   0.18397   0.07925   0.89718   -0.40172   0.18397   102.00806
1819   0.07926   0.89715   -0.40263   0.18259   0.07926   0.89715   -0.40263   0.18259   101.99585
1820   0.07924   0.89721   -0.40178   0.18384   0.07924   0.89721   -0.40178   0.18384   102.07825
1821   0.07928   0.89712   -0.40132   0.18531   0.07928   0.89712   -0.40132   0.18531   102.00806
1822   0.07922   0.89761   -0.40117   0.18308   0.07922   0.89761   -0.40117   0.18308   101.98669
1823   0.07924   0.89773   -0.40129   0.18265   0.07924   0.89773   -0.40129   0.18265   102.03247
1824   0.07923   0.89828   -0.40028   0.18180   0.07923   0.89828   -0.40028   0.18180   102.00806
1825   0.07926   0.89727   -0.40181   0.18387   0.07926   0.89727   -0.40181   0.18387   101.97449
1826   0.07920   0.89731   -0.40217   0.18265   0.07920   0.89731   -0.40217   0.18265   102.02026
1827   0.07914   0.89737   -0.40233   0.18220   0.07914   0.89737   -0.40233   0.18220   102.04468
1828   0.07920   0.89700   -0.40291   0.18256   0.07920   0.89700   -0.40291   0.18256   101.99890
1829   0.07931   0.89798   -0.40056   0.18265   0.07931   0.89798   -0.40056   0.18265   101.95007
1830   0.07920   0.89743   -0.40242   0.18140   0.07920   0.89743   -0.40242   0.18140   102.04468
1831   0.07911   0.89721   -0.40324   0.18076   0.07911   0.89721   -0.40324   0.18076   102.08130
1832   0.07925   0.89663   -0.40318   0.18326   0.07925   0.89663   -0.40318   0.18326   102.00806
1833   0.07924   0.89715   -0.40263   0.18232   0.07924   0.89715   -0.40263   0.18232   102.02026
1834   0.07912   0.89767   -0.40144   0.18241   0.07912   0.89767   -0.40144   0.18241   102.09351
1835   0.07915   0.89798   -0.40068   0.18213   0.07915   0.89798   -0.40068   0.18213   102.02332
1836   0.07930   0.89749   -0.40162   0.18278   0.07930   0.89749   -0.40162   0.18278   101.91650
1837   0.07924   0.89685   -0.40217   0.18464   0.07924   0.89685   -0.40217   0.18464   102.07825
1838   0.07922   0.89712   -0.40220   0.18345   0.07922   0.89712   -0.40220   0.18345   102.11487
1839   0.07929   0.89715   -0.40159   0.18506   0.07929   0.89715   -0.40159   0.18506   102.04163
1840   0.07933   0.89737   -0.40077   0.18485   0.07933   0.89737   -0.40077   0.18485   101.95923
1841   0.07927   0.89712   -0.40193   0.18421   0.07927   0.89712   -0.40193   0.18421   101.98364
1842   0.07913   0.89724   -0.40181   0.18375   0.07913   0.89724   -0.40181   0.18375   102.10571
1843   0.07924   0.89776   -0.40120   0.18274   0.07924   0.89776   -0.40120   0.18274   101.94092
1844   0.07922   0.89740   -0.40196   0.18268   0.07922   0.89740   -0.40196   0.18268   101.97449
1845   0.07914   0.89779   -0.40062   0.18366   0.07914   0.89779   -0.40062   0.18366   102.03552
1846   0.07906   0.89782   -0.40120   0.18247   0.07906   0.89782   -0.40120   0.18247   102.09351
1847   0.07900   0.89734   -0.40172   0.18308   0.07900   0.89734   -0.40172   0.18308   102.01416
1848   0.07922   0.89773   -0.40068   0.18384   0.07922   0.89773   -0.40068   0.18384   101.96228
1849   0.07924   0.89718   -0.40217   0.18345   0.07924   0.89718   -0.40217   0.18345   102.05383
1850   0.07922   0.89761   -0.40132   0.18287   0.07922   0.89761   -0.40132   0.18287   102.00806
1851   0.07921   0.89782   -0.40004   0.18506   0.07921   0.89782   -0.40004   0.18506   101.94092
1852   0.07927   0.89758   -0.40049   0.18485   0.07927   0.89758   -0.40049   0.18485   102.03247
1853   0.07929   0.89718   -0.40162   0.18384   0.07929   0.89718   -0.40162   0.18384   102.06604
1854   0.07926   0.89718   -0.40062   0.18632   0.07926   0.89718   -0.40062   0.18632   101.98669
1855   0.07923   0.89746   -0.40144   0.18378   0.07923   0.89746   -0.40144   0.18378   102.00806
1856   0.07915   0.89724   -0.40150   0.18458   0.07915   0.89724   -0.40150   0.18458   102.04468
1857   0.07918   0.89703   -0.40245   0.18351   0.07918   0.89703   -0.40245   0.18351   102.05688
1858   0.07923   0.89782   -0.40043   0.18418   0.07923   0.89782   -0.40043   0.18418   101.91650
1859   0.07920   0.89795   -0.40101   0.18186   0.07920   0.89795   -0.40101   0.18186   101.99890
1860   0.07917   0.89764   -0.40144   0.18232   0.07917   0.89764   -0.40144   0.18232   102.08130
1861   0.07922   0.89804   -0.39988   0.18403   0.07922   0.89804   -0.39988   0.18403   101.92871
1862   0.07933   0.89724   -0.40123   0.18448   0.07933   0.89724   -0.40123   0.18448   101.98364
1863   0.07934   0.89737   -0.40138   0.18381   0.07934   0.89737   -0.40138   0.18381   102.04163
1864   0.07930   0.89804   -0.40019   0.18354   0.07930   0.89804   -0.40019   0.18354   102.02026
1865   0.07934   0.89816   -0.39927   0.18467   0.07934   0.89816   -0.39927   0.18467   101.90125
1866   0.07930   0.89795   -0.40056   0.18317   0.07930   0.89795   -0.40056   0.18317   101.95007
1867   0.07924   0.89761   -0.40172   0.18207   0.07924   0.89761   -0.40172   0.18207   102.07825
1868   0.07926   0.89758   -0.40126   0.18284   0.07926   0.89758   -0.40126   0.18284   102.03247
1869   0.07928   0.89773   -0.40049   0.18375   0.07928   0.89773   -0.40049   0.18375   101.91650
1870   0.07917   0.89740   -0.40141   0.18372   0.07917   0.89740   -0.40141   0.18372   102.01111
1871   0.07916   0.89840   -0.39979   0.18253   0.07916   0.89840   -0.39979   0.18253   102.03552
1872   0.07922   0.89822   -0.39949   0.18339   0.07922   0.89822   -0.39949   0.18339   101.96228
1873   0.07924   0.89801   -0.39988   0.18390   0.07924   0.89801   -0.39988   0.18390   101.94092
1874   0.07920   0.89770   -0.40107   0.18287   0.07920   0.89770   -0.40107   0.18287   102.02026
1875   0.07915   0.89773   -0.40095   0.18326   0.07915   0.89773   -0.40095   0.18326   102.10266
1876   0.07925   0.89789   -0.40013   0.18439   0.07925   0.89789   -0.40013   0.18439   101.95007
1877   0.07925   0.89801   -0.40037   0.18314   0.07925   0.89801   -0.40037   0.18314   101.97449
1878   0.07925   0.89825   -0.39955   0.18409   0.07925   0.89825   -0.39955   0.18409   101.97449
1879   0.07922   0.89785   -0.40092   0.18235   0.07922   0.89785   -0.40092   0.18235   102.00806
1880   0.07926   0.89764   -0.40107   0.18317   0.07926   0.89764   -0.40107   0.18317   101.98669
1881   0.07923   0.89773   -0.40123   0.18271   0.07923   0.89773   -0.40123   0.18271   101.97449
1882   0.07919   0.89770   -0.40101   0.18345   0.07919   0.89770   -0.40101   0.18345   102.04468
1883   0.07915   0.89828   -0.40010   0.18247   0.07915   0.89828   -0.40010   0.18247   101.91956
1884   0.07913   0.89755   -0.40120   0.18332   0.07913   0.89755   -0.40120   0.18332   101.96533
1885   0.07914   0.89782   -0.40071   0.18299   0.07914   0.89782   -0.40071   0.18299   101.98975
1886   0.07917   0.89825   -0.39985   0.18287   0.07917   0.89825   -0.39985   0.18287   101.98669
1887   0.07924   0.89807   -0.39985   0.18394   0.07924   0.89807   -0.39985   0.18394   101.91650
1888   0.07921   0.89840   -0.39967   0.18268   0.07921   0.89840   -0.39967   0.18268   101.97449
1889   0.07919   0.89828   -0.40010   0.18210   0.07919   0.89828   -0.40010   0.18210   102.04468
1890   0.07923   0.89819   -0.40007   0.18238   0.07923   0.89819   -0.40007   0.18238   101.99890
1891   0.07930   0.89813   -0.39985   0.18378   0.07930   0.89813   -0.39985   0.18378   101.91650
1892   0.07922   0.89795   -0.40043   0.18290   0.07922   0.89795   -0.40043   0.18290   102.00806
1893   0.07916   0.89834   -0.39955   0.18271   0.07916   0.89834   -0.39955   0.18271   102.04468
1894   0.07925   0.89776   -0.40043   0.18387   0.07925   0.89776   -0.40043   0.18387   101.96228
1895   0.07924   0.89804   -0.39985   0.18424   0.07924   0.89804   -0.39985   0.18424   101.91650
1896   0.07919   0.89779   -0.40037   0.18400   0.07919   0.89779   -0.40037   0.18400   102.05688
1897   0.07911   0.89779   -0.39952   0.18601   0.07911   0.89779   -0.39952   0.18601   102.06909
1898   0.07920   0.89831   -0.39891   0.18448   0.07920   0.89831   -0.39891   0.18448   101.94092
1899   0.07922   0.89810   -0.40022   0.18302   0.07922   0.89810   -0.40022   0.18302   101.91650
1900   0.07913   0.89761   -0.40172   0.18235   0.07913   0.89761   -0.40172   0.18235   102.05688
1901   0.07915   0.89834   -0.39937   0.18348   0.07915   0.89834   -0.39937   0.18348   102.03552
1902   0.07925   0.89837   -0.39882   0.18427   0.07925   0.89837   -0.39882   0.18427   101.91650
1903   0.07926   0.89828   -0.39933   0.18390   0.07926   0.89828   -0.39933   0.18390   101.97449
1904   0.07918   0.89834   -0.39946   0.18384   0.07918   0.89834   -0.39946   0.18384   102.02332
1905   0.07923   0.89831   -0.39933   0.18384   0.07923   0.89831   -0.39933   0.18384   101.99890
1906   0.07927   0.89779   -0.40092   0.18290   0.07927   0.89779   -0.40092   0.18290   101.97449
1907   0.07931   0.89776   -0.39998   0.18494   0.07931   0.89776   -0.39998   0.18494   101.98364
1908   0.07927   0.89801   -0.39952   0.18531   0.07927   0.89801   -0.39952   0.18531   102.02026
1909   0.07922   0.89758   -0.40086   0.18390   0.07922   0.89758   -0.40086   0.18390   101.98669
1910   0.07920   0.89840   -0.39982   0.18287   0.07920   0.89840   -0.39982   0.18287   101.95313
1911   0.07917   0.89792   -0.40013   0.18451   0.07917   0.89792   -0.40013   0.18451   101.96533
1912   0.07922   0.89752   -0.40031   0.18555   0.07922   0.89752   -0.40031   0.18555   101.98669
1913   0.07925   0.89795   -0.39949   0.18525   0.07925   0.89795   -0.39949   0.18525   101.96228
1914   0.07925   0.89795   -0.39995   0.18470   0.07925   0.89795   -0.39995   0.18470   101.99585
1915   0.07923   0.89761   -0.40028   0.18574   0.07923   0.89761   -0.40028   0.18574   102.02026
1916   0.07933   0.89789   -0.39982   0.18516   0.07933   0.89789   -0.39982   0.18516   101.95007
1917   0.07927   0.89859   -0.39888   0.18342   0.07927   0.89859   -0.39888   0.18342   101.95007
1918   0.07921   0.89813   -0.40025   0.18271   0.07921   0.89813   -0.40025   0.18271   102.02026
1919   0.07922   0.89825   -0.39995   0.18293   0.07922   0.89825   -0.39995   0.18293   101.99890
1920   0.07930   0.89819   -0.39961   0.18409   0.07930   0.89819   -0.39961   0.18409   101.90430
1921   0.07928   0.89789   -0.40083   0.18284   0.07928   0.89789   -0.40083   0.18284   101.96228
1922   0.07922   0.89773   -0.40068   0.18400   0.07922   0.89773   -0.40068   0.18400   102.07825
1923   0.07922   0.89795   -0.40013   0.18409   0.07922   0.89795   -0.40013   0.18409   101.94092
1924   0.07921   0.89767   -0.40062   0.18427   0.07921   0.89767   -0.40062   0.18427   101.92871
1925   0.07913   0.89804   -0.40049   0.18265   0.07913   0.89804   -0.40049   0.18265   101.97754
1926   0.07909   0.89779   -0.40153   0.18192   0.07909   0.89779   -0.40153   0.18192   102.09351
1927   0.07916   0.89834   -0.39924   0.18418   0.07916   0.89834   -0.39924   0.18418   101.92871
1928   0.07909   0.89767   -0.40037   0.18485   0.07909   0.89767   -0.40037   0.18485   101.95618
1929   0.07911   0.89712   -0.40208   0.18363   0.07911   0.89712   -0.40208   0.18363   102.04773
1930   0.07923   0.89764   -0.40007   0.18519   0.07923   0.89764   -0.40007   0.18519   102.09045
1931   0.07936   0.89746   -0.40059   0.18525   0.07936   0.89746   -0.40059   0.18525   101.95923
1932   0.07924   0.89731   -0.40159   0.18342   0.07924   0.89731   -0.40159   0.18342   102.00806
1933   0.07918   0.89734   -0.40263   0.18137   0.07918   0.89734   -0.40263   0.18137   102.08130
1934   0.07921   0.89807   -0.40031   0.18287   0.07921   0.89807   -0.40031   0.18287   102.01111
1935   0.07933   0.89752   -0.40114   0.18424   0.07933   0.89752   -0.40114   0.18424   101.92566
1936   0.07927   0.89816   -0.40059   0.18210   0.07927   0.89816   -0.40059   0.18210   101.96228
1937   0.07917   0.89703   -0.40226   0.18360   0.07917   0.89703   -0.40226   0.18360   102.05688
1938   0.07922   0.89663   -0.40248   0.18470   0.07922   0.89663   -0.40248   0.18470   102.05688
1939   0.07927   0.89752   -0.40049   0.18500   0.07927   0.89752   -0.40049   0.18500   101.96228
1940   0.07924   0.89770   -0.40190   0.18168   0.07924   0.89770   -0.40190   0.18168   101.99585
1941   0.07916   0.89740   -0.40196   0.18213   0.07916   0.89740   -0.40196   0.18213   102.06909
1942   0.07922   0.89767   -0.40062   0.18384   0.07922   0.89767   -0.40062   0.18384   101.95007
1943   0.07922   0.89785   -0.40089   0.18238   0.07922   0.89785   -0.40089   0.18238   102.03247
1944   0.07923   0.89773   -0.40150   0.18223   0.07923   0.89773   -0.40150   0.18223   102.03247
1945   0.07924   0.89773   -0.40013   0.18464   0.07924   0.89773   -0.40013   0.18464   101.95007
1946   0.07928   0.89734   -0.40156   0.18345   0.07928   0.89734   -0.40156   0.18345   101.98364
1947   0.07935   0.89758   -0.40095   0.18390   0.07935   0.89758   -0.40095   0.18390   102.00500
1948   0.07930   0.89676   -0.40318   0.18320   0.07930   0.89676   -0.40318   0.18320   102.12402
1949   0.07919   0.89703   -0.40251   0.18308   0.07919   0.89703   -0.40251   0.18308   101.98669
1950   0.07915   0.89731   -0.40229   0.18201   0.07915   0.89731   -0.40229   0.18201   101.99890
1951   0.07922   0.89758   -0.40141   0.18259   0.07922   0.89758   -0.40141   0.18259   102.10266
1952   0.07921   0.89789   -0.40028   0.18418   0.07921   0.89789   -0.40028   0.18418   102.02026
1953   0.07929   0.89758   -0.40098   0.18372   0.07929   0.89758   -0.40098   0.18372   101.92566
1954   0.07922   0.89740   -0.40077   0.18509   0.07922   0.89740   -0.40077   0.18509   102.02026
1955   0.07916   0.89731   -0.40168   0.18387   0.07916   0.89731   -0.40168   0.18387   102.13928
1956   0.07932   0.89740   -0.40071   0.18540   0.07932   0.89740   -0.40071   0.18540   101.95007
1957   0.07937   0.89749   -0.40071   0.18549   0.07937   0.89749   -0.40071   0.18549   101.93787
1958   0.07925   0.89746   -0.40193   0.18247   0.07925   0.89746   -0.40193   0.18247   102.04468
1959   0.07924   0.89706   -0.40245   0.18339   0.07924   0.89706   -0.40245   0.18339   102.09045
1960   0.07933   0.89737   -0.40107   0.18491   0.07933   0.89737   -0.40107   0.18491   101.98364
1961   0.07938   0.89737   -0.40104   0.18448   0.07938   0.89737   -0.40104   0.18448   101.95923
1962   0.07933   0.89676   -0.40223   0.18546   0.07933   0.89676   -0.40223   0.18546   102.08740
1963   0.07930   0.89663   -0.40263   0.18439   0.07930   0.89663   -0.40263   0.18439   102.08740
1964   0.07940   0.89737   -0.40138   0.18406   0.07940   0.89737   -0.40138   0.18406   101.95923
1965   0.07911   0.89789   -0.40132   0.18134   0.07911   0.89789   -0.40132   0.18134   101.94397
1966   0.07899   0.89737   -0.40150   0.18360   0.07899   0.89737   -0.40150   0.18360   102.03857
1967   0.07933   0.89676   -0.40236   0.18439   0.07933   0.89676   -0.40236   0.18439   102.04163
1968   0.07925   0.89749   -0.40175   0.18250   0.07925   0.89749   -0.40175   0.18250   102.02026
1969   0.07910   0.89697   -0.40263   0.18308   0.07910   0.89697   -0.40263   0.18308   102.03552
1970   0.07913   0.89691   -0.40358   0.18119   0.07913   0.89691   -0.40358   0.18119   102.05688
1971   0.07926   0.89709   -0.40214   0.18329   0.07926   0.89709   -0.40214   0.18329   102.00806
1972   0.07927   0.89703   -0.40294   0.18180   0.07927   0.89703   -0.40294   0.18180   102.04163
1973   0.07918   0.89737   -0.40254   0.18128   0.07918   0.89737   -0.40254   0.18128   102.04468
1974   0.07921   0.89773   -0.40089   0.18326   0.07921   0.89773   -0.40089   0.18326   101.97449
1975   0.07928   0.89697   -0.40281   0.18244   0.07928   0.89697   -0.40281   0.18244   101.99585
1976   0.07926   0.89721   -0.40211   0.18284   0.07926   0.89721   -0.40211   0.18284   101.97449
1977   0.07916   0.89727   -0.40220   0.18241   0.07916   0.89727   -0.40220   0.18241   102.08130
1978   0.07919   0.89666   -0.40287   0.18369   0.07919   0.89666   -0.40287   0.18369   102.02332
1979   0.07919   0.89673   -0.40315   0.18296   0.07919   0.89673   -0.40315   0.18296   102.02332
1980   0.07913   0.89731   -0.40297   0.18104   0.07913   0.89731   -0.40297   0.18104   102.05688
1981   0.07915   0.89703   -0.40303   0.18180   0.07915   0.89703   -0.40303   0.18180   102.05688
1982   0.07924   0.89621   -0.40349   0.18482   0.07924   0.89621   -0.40349   0.18482   101.98669
1983   0.07924   0.89615   -0.40361   0.18491   0.07924   0.89615   -0.40361   0.18491   102.04468
1984   0.07921   0.89633   -0.40345   0.18418   0.07921   0.89633   -0.40345   0.18418   102.09045
1985   0.07924   0.89694   -0.40278   0.18320   0.07924   0.89694   -0.40278   0.18320   102.06604
1986   0.07937   0.89721   -0.40162   0.18436   0.07937   0.89721   -0.40162   0.18436   101.90125
1987   0.07926   0.89660   -0.40373   0.18250   0.07926   0.89660   -0.40373   0.18250   102.03247
1988   0.07922   0.89691   -0.40373   0.18143   0.07922   0.89691   -0.40373   0.18143   102.11487
1989   0.07928   0.89657   -0.40355   0.18299   0.07928   0.89657   -0.40355   0.18299   102.03247
1990   0.07931   0.89688   -0.40361   0.18159   0.07931   0.89688   -0.40361   0.18159   101.99585
1991   0.07922   0.89676   -0.40394   0.18131   0.07922   0.89676   -0.40394   0.18131   102.05688
1992   0.07919   0.89743   -0.40294   0.18012   0.07919   0.89743   -0.40294   0.18012   102.07825
1993   0.07917   0.89700   -0.40239   0.18336   0.07917   0.89700   -0.40239   0.18336   102.01111
1994   0.07917   0.89685   -0.40376   0.18192   0.07917   0.89685   -0.40376   0.18192   102.02332
1995   0.07915   0.89724   -0.40303   0.18110   0.07915   0.89724   -0.40303   0.18110   102.05688
1996   0.07917   0.89688   -0.40342   0.18159   0.07917   0.89688   -0.40342   0.18159   102.03247
1997   0.07921   0.89676   -0.40367   0.18210   0.07921   0.89676   -0.40367   0.18210   102.01111
1998   0.07919   0.89697   -0.40382   0.18113   0.07919   0.89697   -0.40382   0.18113   101.99890
1999   0.07923   0.89673   -0.40260   0.18464   0.07923   0.89673   -0.40260   0.18464   102.09045
2000   0.07926   0.89673   -0.40434   0.18101   0.07926   0.89673   -0.40434   0.18101   102.00806
