Sampling rate: 10000.000 samples/sec
Screen size: 2000 samples
DOP average: 1 SOPsamples
Start time: 14:42:43 5/17/2021
Interval: 0.000100000 sec
(Waveform type: 1,3,4,5)
Index      S0(mW)      S1      S2      S3      S0(mW)      S1      S2      S3      DOP
1   0.09577   -0.48241   0.85113   0.20771   0.09577   -0.48241   0.85113   0.20771   89.00452
2   0.09601   -0.48250   0.85122   0.20728   0.09601   -0.48250   0.85122   0.20728   89.03198
3   0.09606   -0.48289   0.85076   0.20783   0.09606   -0.48289   0.85076   0.20783   88.98010
4   0.09602   -0.48357   0.85046   0.20804   0.09602   -0.48357   0.85046   0.20804   89.01367
5   0.09605   -0.48335   0.85052   0.20750   0.09605   -0.48335   0.85052   0.20750   88.98926
6   0.09607   -0.48347   0.85052   0.20771   0.09607   -0.48347   0.85052   0.20771   88.94348
7   0.09604   -0.48430   0.85018   0.20701   0.09604   -0.48430   0.85018   0.20701   89.05334
8   0.09609   -0.48341   0.85064   0.20704   0.09609   -0.48341   0.85064   0.20704   89.05945
9   0.09613   -0.48344   0.85052   0.20759   0.09613   -0.48344   0.85052   0.20759   88.93127
10   0.09607   -0.48311   0.85098   0.20621   0.09607   -0.48311   0.85098   0.20621   89.00146
11   0.09599   -0.48332   0.85070   0.20722   0.09599   -0.48332   0.85070   0.20722   89.01062
12   0.09593   -0.48442   0.85003   0.20707   0.09593   -0.48442   0.85003   0.20707   88.94653
13   0.09602   -0.48433   0.84991   0.20808   0.09602   -0.48433   0.84991   0.20808   88.86108
14   0.09598   -0.48427   0.85006   0.20737   0.09598   -0.48427   0.85006   0.20737   88.93433
15   0.09597   -0.48534   0.84970   0.20634   0.09597   -0.48534   0.84970   0.20634   88.97095
16   0.09601   -0.48555   0.84945   0.20682   0.09601   -0.48555   0.84945   0.20682   89.03198
17   0.09609   -0.48564   0.84945   0.20698   0.09609   -0.48564   0.84945   0.20698   88.98315
18   0.09617   -0.48415   0.85009   0.20771   0.09617   -0.48415   0.85009   0.20771   88.93738
19   0.09615   -0.48317   0.85034   0.20887   0.09615   -0.48317   0.85034   0.20887   88.95264
20   0.09600   -0.48299   0.85031   0.20954   0.09600   -0.48299   0.85031   0.20954   88.86719
21   0.09598   -0.48350   0.85052   0.20774   0.09598   -0.48350   0.85052   0.20774   88.96179
22   0.09612   -0.48396   0.84945   0.21064   0.09612   -0.48396   0.84945   0.21064   88.83362
23   0.09615   -0.48442   0.84973   0.20866   0.09615   -0.48442   0.84973   0.20866   88.86719
24   0.09607   -0.48393   0.84951   0.21052   0.09607   -0.48393   0.84951   0.21052   88.81836
25   0.09596   -0.48241   0.85040   0.21018   0.09596   -0.48241   0.85040   0.21018   88.81531
26   0.09585   -0.48546   0.84954   0.20676   0.09585   -0.48546   0.84954   0.20676   89.03198
27   0.09603   -0.48363   0.85006   0.20902   0.09603   -0.48363   0.85006   0.20902   88.89160
28   0.09608   -0.48396   0.85009   0.20795   0.09608   -0.48396   0.85009   0.20795   88.94348
29   0.09598   -0.48457   0.84964   0.20866   0.09598   -0.48457   0.84964   0.20866   88.97095
30   0.09602   -0.48436   0.84976   0.20859   0.09602   -0.48436   0.84976   0.20859   88.84277
31   0.09607   -0.48476   0.84951   0.20850   0.09607   -0.48476   0.84951   0.20850   88.89465
32   0.09609   -0.48595   0.84936   0.20673   0.09609   -0.48595   0.84936   0.20673   88.98315
33   0.09602   -0.48595   0.84930   0.20655   0.09602   -0.48595   0.84930   0.20655   88.92822
34   0.09605   -0.48494   0.84964   0.20762   0.09605   -0.48494   0.84964   0.20762   89.02588
35   0.09622   -0.48430   0.84957   0.20933   0.09622   -0.48430   0.84957   0.20933   88.87329
36   0.09615   -0.48265   0.85049   0.20963   0.09615   -0.48265   0.85049   0.20963   88.81836
37   0.09572   -0.48338   0.85028   0.20872   0.09572   -0.48338   0.85028   0.20872   88.89465
38   0.09580   -0.48183   0.85073   0.21021   0.09580   -0.48183   0.85073   0.21021   88.86414
39   0.09605   -0.48198   0.85076   0.20997   0.09605   -0.48198   0.85076   0.20997   88.88245
40   0.09602   -0.48421   0.84970   0.20917   0.09602   -0.48421   0.84970   0.20917   88.87024
41   0.09584   -0.48552   0.84948   0.20707   0.09584   -0.48552   0.84948   0.20707   89.03198
42   0.09588   -0.48534   0.84951   0.20710   0.09588   -0.48534   0.84951   0.20710   89.03503
43   0.09605   -0.48460   0.84991   0.20759   0.09605   -0.48460   0.84991   0.20759   88.94043
44   0.09600   -0.48549   0.84924   0.20804   0.09600   -0.48549   0.84924   0.20804   88.91602
45   0.09595   -0.48326   0.85022   0.20930   0.09595   -0.48326   0.85022   0.20930   89.01672
46   0.09605   -0.48323   0.85003   0.21000   0.09605   -0.48323   0.85003   0.21000   88.88245
47   0.09607   -0.48405   0.84985   0.20920   0.09607   -0.48405   0.84985   0.20920   88.85803
48   0.09603   -0.48466   0.84957   0.20899   0.09603   -0.48466   0.84957   0.20899   88.81531
49   0.09592   -0.48518   0.84967   0.20728   0.09592   -0.48518   0.84967   0.20728   89.04114
50   0.09587   -0.48607   0.84924   0.20685   0.09587   -0.48607   0.84924   0.20685   89.04419
51   0.09597   -0.48442   0.84970   0.20838   0.09597   -0.48442   0.84970   0.20838   88.88550
52   0.09591   -0.48387   0.85022   0.20780   0.09591   -0.48387   0.85022   0.20780   88.93433
53   0.09597   -0.48418   0.84964   0.20942   0.09597   -0.48418   0.84964   0.20942   88.84583
54   0.09600   -0.48466   0.84945   0.20917   0.09600   -0.48466   0.84945   0.20917   88.85803
55   0.09602   -0.48299   0.84997   0.21082   0.09602   -0.48299   0.84997   0.21082   88.80310
56   0.09599   -0.48286   0.85031   0.20963   0.09599   -0.48286   0.85031   0.20963   88.92517
57   0.09607   -0.48308   0.85028   0.20951   0.09607   -0.48308   0.85028   0.20951   88.88550
58   0.09610   -0.48469   0.84930   0.20985   0.09610   -0.48469   0.84930   0.20985   88.74512
59   0.09608   -0.48454   0.84954   0.20896   0.09608   -0.48454   0.84954   0.20896   88.80310
60   0.09607   -0.48241   0.85052   0.20997   0.09607   -0.48241   0.85052   0.20997   88.92517
61   0.09605   -0.48238   0.85015   0.21183   0.09605   -0.48238   0.85015   0.21183   88.86414
62   0.09600   -0.48369   0.84973   0.21055   0.09600   -0.48369   0.84973   0.21055   88.81226
63   0.09589   -0.48408   0.84967   0.20954   0.09589   -0.48408   0.84967   0.20954   88.90381
64   0.09602   -0.48256   0.85022   0.21107   0.09602   -0.48256   0.85022   0.21107   88.81226
65   0.09607   -0.48469   0.84951   0.20896   0.09607   -0.48469   0.84951   0.20896   88.80920
66   0.09600   -0.48521   0.84930   0.20835   0.09600   -0.48521   0.84930   0.20835   88.93433
67   0.09600   -0.48360   0.84991   0.20960   0.09600   -0.48360   0.84991   0.20960   88.86719
68   0.09605   -0.48384   0.84982   0.20988   0.09605   -0.48384   0.84982   0.20988   88.93127
69   0.09613   -0.48335   0.84976   0.21067   0.09613   -0.48335   0.84976   0.21067   88.77869
70   0.09609   -0.48326   0.85018   0.20951   0.09609   -0.48326   0.85018   0.20951   88.93738
71   0.09602   -0.48228   0.85080   0.20942   0.09602   -0.48228   0.85080   0.20942   88.97400
72   0.09613   -0.48183   0.85055   0.21104   0.09613   -0.48183   0.85055   0.21104   88.88245
73   0.09616   -0.48183   0.85009   0.21281   0.09616   -0.48183   0.85009   0.21281   88.75427
74   0.09605   -0.48231   0.85025   0.21168   0.09605   -0.48231   0.85025   0.21168   88.80615
75   0.09595   -0.48292   0.84982   0.21155   0.09595   -0.48292   0.84982   0.21155   88.85193
76   0.09601   -0.48219   0.85031   0.21168   0.09601   -0.48219   0.85031   0.21168   88.76343
77   0.09608   -0.48186   0.85015   0.21265   0.09608   -0.48186   0.85015   0.21265   88.73596
78   0.09596   -0.48311   0.85022   0.20972   0.09596   -0.48311   0.85022   0.20972   88.86414
79   0.09598   -0.48314   0.85022   0.20914   0.09598   -0.48314   0.85022   0.20914   88.95264
80   0.09606   -0.48225   0.85037   0.21091   0.09606   -0.48225   0.85037   0.21091   88.87634
81   0.09612   -0.48415   0.84939   0.21061   0.09612   -0.48415   0.84939   0.21061   88.78784
82   0.09605   -0.48213   0.85064   0.21018   0.09605   -0.48213   0.85064   0.21018   88.83667
83   0.09607   -0.48332   0.84985   0.21088   0.09607   -0.48332   0.84985   0.21088   88.84888
84   0.09614   -0.48311   0.84991   0.21094   0.09614   -0.48311   0.84991   0.21094   88.78784
85   0.09614   -0.48390   0.84948   0.21046   0.09614   -0.48390   0.84948   0.21046   88.80005
86   0.09605   -0.48189   0.85055   0.21119   0.09605   -0.48189   0.85055   0.21119   88.84583
87   0.09605   -0.48286   0.85000   0.21125   0.09605   -0.48286   0.85000   0.21125   88.79700
88   0.09598   -0.48207   0.85040   0.21128   0.09598   -0.48207   0.85040   0.21128   88.87634
89   0.09600   -0.48231   0.85034   0.21097   0.09600   -0.48231   0.85034   0.21097   88.83972
90   0.09595   -0.48289   0.84988   0.21152   0.09595   -0.48289   0.84988   0.21152   88.88245
91   0.09602   -0.48347   0.84979   0.21061   0.09602   -0.48347   0.84979   0.21061   88.87024
92   0.09606   -0.48274   0.85034   0.21000   0.09606   -0.48274   0.85034   0.21000   88.82751
93   0.09601   -0.48320   0.84997   0.21043   0.09601   -0.48320   0.84997   0.21043   88.87024
94   0.09605   -0.48125   0.85086   0.21113   0.09605   -0.48125   0.85086   0.21113   88.87329
95   0.09608   -0.48173   0.85101   0.20981   0.09608   -0.48173   0.85101   0.20981   88.90686
96   0.09605   -0.48198   0.85043   0.21137   0.09605   -0.48198   0.85043   0.21137   88.92212
97   0.09602   -0.48177   0.85064   0.21079   0.09602   -0.48177   0.85064   0.21079   88.96484
98   0.09612   -0.48216   0.85064   0.20975   0.09612   -0.48216   0.85064   0.20975   88.89160
99   0.09612   -0.48222   0.85061   0.21012   0.09612   -0.48222   0.85061   0.21012   88.83362
100   0.09603   -0.48344   0.85012   0.20917   0.09603   -0.48344   0.85012   0.20917   88.91907
101   0.09602   -0.48277   0.85061   0.20881   0.09602   -0.48277   0.85061   0.20881   88.95569
102   0.09609   -0.48186   0.85089   0.20981   0.09609   -0.48186   0.85089   0.20981   88.91602
103   0.09603   -0.48164   0.85113   0.20942   0.09603   -0.48164   0.85113   0.20942   88.92822
104   0.09597   -0.48201   0.85110   0.20875   0.09597   -0.48201   0.85110   0.20875   88.93127
105   0.09601   -0.48228   0.85076   0.20914   0.09601   -0.48228   0.85076   0.20914   88.97400
106   0.09606   -0.48177   0.85086   0.21000   0.09606   -0.48177   0.85086   0.21000   88.93433
107   0.09605   -0.48189   0.85107   0.20902   0.09605   -0.48189   0.85107   0.20902   88.93127
108   0.09597   -0.48259   0.85061   0.20914   0.09597   -0.48259   0.85061   0.20914   88.89465
109   0.09608   -0.48189   0.85098   0.20942   0.09608   -0.48189   0.85098   0.20942   88.89771
110   0.09614   -0.48292   0.85064   0.20862   0.09614   -0.48292   0.85064   0.20862   88.88550
111   0.09610   -0.48253   0.85086   0.20844   0.09610   -0.48253   0.85086   0.20844   88.87024
112   0.09600   -0.48244   0.85089   0.20884   0.09600   -0.48244   0.85089   0.20884   88.96484
113   0.09600   -0.48238   0.85083   0.20930   0.09600   -0.48238   0.85083   0.20930   88.93433
114   0.09599   -0.48155   0.85101   0.20997   0.09599   -0.48155   0.85101   0.20997   88.94348
115   0.09602   -0.48039   0.85168   0.21000   0.09602   -0.48039   0.85168   0.21000   88.89771
116   0.09592   -0.48177   0.85125   0.20838   0.09592   -0.48177   0.85125   0.20838   89.01062
117   0.09596   -0.48155   0.85107   0.20975   0.09596   -0.48155   0.85107   0.20975   88.84583
118   0.09578   -0.48225   0.85101   0.20838   0.09578   -0.48225   0.85101   0.20838   88.82446
119   0.09596   -0.48216   0.85122   0.20801   0.09596   -0.48216   0.85122   0.20801   88.90076
120   0.09610   -0.48134   0.85141   0.20902   0.09610   -0.48134   0.85141   0.20902   88.97400
121   0.09617   -0.48122   0.85141   0.20960   0.09617   -0.48122   0.85141   0.20960   88.92517
122   0.09610   -0.48192   0.85147   0.20740   0.09610   -0.48192   0.85147   0.20740   88.94653
123   0.09598   -0.48115   0.85144   0.20902   0.09598   -0.48115   0.85144   0.20902   88.94348
124   0.09601   -0.48265   0.85076   0.20853   0.09601   -0.48265   0.85076   0.20853   88.96484
125   0.09614   -0.47996   0.85192   0.20957   0.09614   -0.47996   0.85192   0.20957   88.85803
126   0.09604   -0.48027   0.85183   0.20920   0.09604   -0.48027   0.85183   0.20920   88.95874
127   0.09588   -0.48048   0.85192   0.20838   0.09588   -0.48048   0.85192   0.20838   88.96790
128   0.09599   -0.47972   0.85223   0.20911   0.09599   -0.47972   0.85223   0.20911   88.96179
129   0.09603   -0.48109   0.85192   0.20737   0.09603   -0.48109   0.85192   0.20737   88.92822
130   0.09606   -0.48000   0.85192   0.20954   0.09606   -0.48000   0.85192   0.20954   88.87634
131   0.09600   -0.48036   0.85199   0.20850   0.09600   -0.48036   0.85199   0.20850   89.01062
132   0.09604   -0.47911   0.85284   0.20820   0.09604   -0.47911   0.85284   0.20820   89.07166
133   0.09611   -0.47911   0.85275   0.20875   0.09611   -0.47911   0.85275   0.20875   88.91907
134   0.09611   -0.47908   0.85275   0.20899   0.09611   -0.47908   0.85275   0.20899   89.02283
135   0.09615   -0.47996   0.85223   0.20869   0.09615   -0.47996   0.85223   0.20869   88.98010
136   0.09623   -0.47902   0.85284   0.20844   0.09623   -0.47902   0.85284   0.20844   88.98926
137   0.09616   -0.47948   0.85272   0.20777   0.09616   -0.47948   0.85272   0.20777   89.02893
138   0.09607   -0.48015   0.85241   0.20746   0.09607   -0.48015   0.85241   0.20746   89.01978
139   0.09607   -0.48042   0.85199   0.20859   0.09607   -0.48042   0.85199   0.20859   89.03809
140   0.09610   -0.47862   0.85321   0.20759   0.09610   -0.47862   0.85321   0.20759   89.01367
141   0.09611   -0.47963   0.85284   0.20725   0.09611   -0.47963   0.85284   0.20725   89.01367
142   0.09604   -0.47887   0.85330   0.20679   0.09604   -0.47887   0.85330   0.20679   89.10217
143   0.09612   -0.47832   0.85351   0.20698   0.09612   -0.47832   0.85351   0.20698   89.06250
144   0.09609   -0.47713   0.85388   0.20844   0.09609   -0.47713   0.85388   0.20844   89.05945
145   0.09607   -0.47780   0.85382   0.20713   0.09607   -0.47780   0.85382   0.20713   89.08691
146   0.09607   -0.47823   0.85318   0.20856   0.09607   -0.47823   0.85318   0.20856   89.06860
147   0.09621   -0.47847   0.85351   0.20673   0.09621   -0.47847   0.85351   0.20673   89.04419
148   0.09614   -0.47661   0.85449   0.20734   0.09614   -0.47661   0.85449   0.20734   89.16016
149   0.09609   -0.47847   0.85354   0.20637   0.09609   -0.47847   0.85354   0.20637   89.10828
150   0.09607   -0.47899   0.85336   0.20606   0.09607   -0.47899   0.85336   0.20606   89.12354
151   0.09615   -0.47807   0.85385   0.20640   0.09615   -0.47807   0.85385   0.20640   89.04724
152   0.09605   -0.47771   0.85391   0.20664   0.09605   -0.47771   0.85391   0.20664   89.12964
153   0.09595   -0.47707   0.85440   0.20621   0.09595   -0.47707   0.85440   0.20621   89.17847
154   0.09603   -0.47749   0.85415   0.20618   0.09603   -0.47749   0.85415   0.20618   89.14795
155   0.09607   -0.47780   0.85412   0.20637   0.09607   -0.47780   0.85412   0.20637   89.03809
156   0.09605   -0.47664   0.85452   0.20716   0.09605   -0.47664   0.85452   0.20716   89.11133
157   0.09602   -0.47591   0.85482   0.20722   0.09602   -0.47591   0.85482   0.20722   89.12659
158   0.09614   -0.47600   0.85473   0.20771   0.09614   -0.47600   0.85473   0.20771   88.99841
159   0.09614   -0.47728   0.85394   0.20804   0.09614   -0.47728   0.85394   0.20804   89.00757
160   0.09614   -0.47649   0.85455   0.20728   0.09614   -0.47649   0.85455   0.20728   89.01672
161   0.09604   -0.47658   0.85455   0.20692   0.09604   -0.47658   0.85455   0.20692   89.17847
162   0.09616   -0.47722   0.85430   0.20685   0.09616   -0.47722   0.85430   0.20685   89.12659
163   0.09618   -0.47642   0.85440   0.20753   0.09618   -0.47642   0.85440   0.20753   89.08081
164   0.09604   -0.47630   0.85476   0.20692   0.09604   -0.47630   0.85476   0.20692   89.09302
165   0.09600   -0.47563   0.85495   0.20762   0.09600   -0.47563   0.85495   0.20762   89.05945
166   0.09606   -0.47542   0.85513   0.20746   0.09606   -0.47542   0.85513   0.20746   89.02893
167   0.09606   -0.47478   0.85540   0.20719   0.09606   -0.47478   0.85540   0.20719   89.16016
168   0.09604   -0.47523   0.85507   0.20762   0.09604   -0.47523   0.85507   0.20762   89.10217
169   0.09606   -0.47633   0.85458   0.20713   0.09606   -0.47633   0.85458   0.20713   89.08691
170   0.09614   -0.47444   0.85546   0.20856   0.09614   -0.47444   0.85546   0.20856   89.08386
171   0.09616   -0.47435   0.85574   0.20731   0.09616   -0.47435   0.85574   0.20731   89.07776
172   0.09613   -0.47444   0.85556   0.20789   0.09613   -0.47444   0.85556   0.20789   89.08386
173   0.09617   -0.47520   0.85516   0.20768   0.09617   -0.47520   0.85516   0.20768   89.10828
174   0.09618   -0.47441   0.85543   0.20811   0.09618   -0.47441   0.85543   0.20811   89.00452
175   0.09618   -0.47407   0.85601   0.20710   0.09618   -0.47407   0.85601   0.20710   89.10828
176   0.09614   -0.47493   0.85580   0.20579   0.09614   -0.47493   0.85580   0.20579   89.14185
177   0.09615   -0.47465   0.85543   0.20762   0.09615   -0.47465   0.85543   0.20762   89.00146
178   0.09604   -0.47487   0.85516   0.20820   0.09604   -0.47487   0.85516   0.20820   89.00452
179   0.09604   -0.47359   0.85611   0.20704   0.09604   -0.47359   0.85611   0.20704   89.15710
180   0.09609   -0.47365   0.85586   0.20829   0.09609   -0.47365   0.85586   0.20829   89.01367
181   0.09616   -0.47407   0.85586   0.20789   0.09616   -0.47407   0.85586   0.20789   89.02893
182   0.09612   -0.47356   0.85598   0.20786   0.09612   -0.47356   0.85598   0.20786   89.11133
183   0.09612   -0.47386   0.85592   0.20743   0.09612   -0.47386   0.85592   0.20743   89.08081
184   0.09619   -0.47392   0.85598   0.20753   0.09619   -0.47392   0.85598   0.20753   89.03198
185   0.09621   -0.47505   0.85540   0.20685   0.09621   -0.47505   0.85540   0.20685   89.06250
186   0.09615   -0.47411   0.85568   0.20820   0.09615   -0.47411   0.85568   0.20820   89.02893
187   0.09611   -0.47346   0.85620   0.20731   0.09611   -0.47346   0.85620   0.20731   89.18457
188   0.09623   -0.47432   0.85568   0.20704   0.09623   -0.47432   0.85568   0.20704   89.11438
189   0.09618   -0.47462   0.85580   0.20649   0.09618   -0.47462   0.85580   0.20649   89.05029
190   0.09609   -0.47279   0.85662   0.20731   0.09609   -0.47279   0.85662   0.20731   89.11743
191   0.09598   -0.47346   0.85638   0.20631   0.09598   -0.47346   0.85638   0.20631   89.17236
192   0.09614   -0.47417   0.85571   0.20762   0.09614   -0.47417   0.85571   0.20762   89.07471
193   0.09614   -0.47389   0.85589   0.20783   0.09614   -0.47389   0.85589   0.20783   89.04724
194   0.09606   -0.47411   0.85595   0.20701   0.09606   -0.47411   0.85595   0.20701   89.05640
195   0.09611   -0.47273   0.85635   0.20832   0.09611   -0.47273   0.85635   0.20832   88.99536
196   0.09620   -0.47438   0.85556   0.20765   0.09620   -0.47438   0.85556   0.20765   89.05334
197   0.09617   -0.47282   0.85665   0.20701   0.09617   -0.47282   0.85665   0.20701   89.06860
198   0.09611   -0.47386   0.85614   0.20673   0.09611   -0.47386   0.85614   0.20673   89.16626
199   0.09614   -0.47365   0.85629   0.20615   0.09614   -0.47365   0.85629   0.20615   89.23645
200   0.09606   -0.47386   0.85607   0.20707   0.09606   -0.47386   0.85607   0.20707   89.06555
201   0.09595   -0.47411   0.85620   0.20600   0.09595   -0.47411   0.85620   0.20600   89.12048
202   0.09604   -0.47395   0.85641   0.20573   0.09604   -0.47395   0.85641   0.20573   89.23340
203   0.09618   -0.47337   0.85611   0.20814   0.09618   -0.47337   0.85611   0.20814   89.00452
204   0.09612   -0.47389   0.85604   0.20728   0.09612   -0.47389   0.85604   0.20728   89.06250
205   0.09606   -0.47435   0.85620   0.20539   0.09606   -0.47435   0.85620   0.20539   89.15100
206   0.09600   -0.47475   0.85574   0.20658   0.09600   -0.47475   0.85574   0.20658   89.13574
207   0.09614   -0.47392   0.85598   0.20737   0.09614   -0.47392   0.85598   0.20737   89.08386
208   0.09618   -0.47325   0.85611   0.20823   0.09618   -0.47325   0.85611   0.20823   89.05029
209   0.09615   -0.47392   0.85617   0.20627   0.09615   -0.47392   0.85617   0.20627   89.11438
210   0.09621   -0.47194   0.85714   0.20704   0.09621   -0.47194   0.85714   0.20704   89.01672
211   0.09625   -0.47176   0.85705   0.20753   0.09625   -0.47176   0.85705   0.20753   89.05945
212   0.09617   -0.47270   0.85665   0.20716   0.09617   -0.47270   0.85665   0.20716   89.06860
213   0.09614   -0.47313   0.85687   0.20515   0.09614   -0.47313   0.85687   0.20515   89.18152
214   0.09617   -0.47182   0.85745   0.20600   0.09617   -0.47182   0.85745   0.20600   89.16321
215   0.09618   -0.47246   0.85714   0.20579   0.09618   -0.47246   0.85714   0.20579   89.10828
216   0.09611   -0.47264   0.85687   0.20649   0.09611   -0.47264   0.85687   0.20649   89.08997
217   0.09605   -0.47060   0.85778   0.20728   0.09605   -0.47060   0.85778   0.20728   89.14185
218   0.09631   -0.47209   0.85711   0.20664   0.09631   -0.47209   0.85711   0.20664   89.08386
219   0.09627   -0.47087   0.85781   0.20658   0.09627   -0.47087   0.85781   0.20658   89.15710
220   0.09605   -0.47108   0.85794   0.20566   0.09605   -0.47108   0.85794   0.20566   89.17847
221   0.09602   -0.47084   0.85766   0.20707   0.09602   -0.47084   0.85766   0.20707   89.14795
222   0.09623   -0.47200   0.85702   0.20740   0.09623   -0.47200   0.85702   0.20740   89.11438
223   0.09627   -0.47172   0.85748   0.20594   0.09627   -0.47172   0.85748   0.20594   89.16626
224   0.09624   -0.47130   0.85809   0.20484   0.09624   -0.47130   0.85809   0.20484   89.21814
225   0.09618   -0.47340   0.85693   0.20475   0.09618   -0.47340   0.85693   0.20475   89.15710
226   0.09622   -0.47252   0.85736   0.20475   0.09622   -0.47252   0.85736   0.20475   89.14185
227   0.09616   -0.47301   0.85711   0.20472   0.09616   -0.47301   0.85711   0.20472   89.22119
228   0.09616   -0.47163   0.85781   0.20435   0.09616   -0.47163   0.85781   0.20435   89.23950
229   0.09609   -0.47261   0.85717   0.20490   0.09609   -0.47261   0.85717   0.20490   89.22119
230   0.09610   -0.47319   0.85702   0.20426   0.09610   -0.47319   0.85702   0.20426   89.21204
231   0.09605   -0.47389   0.85665   0.20454   0.09605   -0.47389   0.85665   0.20454   89.25476
232   0.09604   -0.47465   0.85611   0.20505   0.09604   -0.47465   0.85611   0.20505   89.19678
233   0.09619   -0.47383   0.85638   0.20573   0.09619   -0.47383   0.85638   0.20573   89.05334
234   0.09619   -0.47218   0.85742   0.20542   0.09619   -0.47218   0.85742   0.20542   89.12964
235   0.09625   -0.47227   0.85720   0.20551   0.09625   -0.47227   0.85720   0.20551   89.25781
236   0.09621   -0.47237   0.85687   0.20740   0.09621   -0.47237   0.85687   0.20740   89.16931
237   0.09612   -0.47276   0.85702   0.20527   0.09612   -0.47276   0.85702   0.20527   89.14795
238   0.09608   -0.47191   0.85742   0.20576   0.09608   -0.47191   0.85742   0.20576   89.11743
239   0.09613   -0.47356   0.85675   0.20484   0.09613   -0.47356   0.85675   0.20484   89.24561
240   0.09611   -0.47401   0.85662   0.20435   0.09611   -0.47401   0.85662   0.20435   89.26086
241   0.09616   -0.47142   0.85797   0.20454   0.09616   -0.47142   0.85797   0.20454   89.15405
242   0.09600   -0.47249   0.85763   0.20362   0.09600   -0.47249   0.85763   0.20362   89.17236
243   0.09598   -0.47304   0.85714   0.20450   0.09598   -0.47304   0.85714   0.20450   89.25781
244   0.09605   -0.47261   0.85742   0.20426   0.09605   -0.47261   0.85742   0.20426   89.28528
245   0.09616   -0.47255   0.85717   0.20536   0.09616   -0.47255   0.85717   0.20536   89.05029
246   0.09609   -0.47322   0.85678   0.20533   0.09609   -0.47322   0.85678   0.20533   89.19373
247   0.09607   -0.47209   0.85730   0.20566   0.09607   -0.47209   0.85730   0.20566   89.19983
248   0.09617   -0.47166   0.85748   0.20588   0.09617   -0.47166   0.85748   0.20588   89.16321
249   0.09621   -0.47255   0.85766   0.20341   0.09621   -0.47255   0.85766   0.20341   89.22424
250   0.09614   -0.47218   0.85794   0.20338   0.09614   -0.47218   0.85794   0.20338   89.34326
251   0.09613   -0.47383   0.85681   0.20417   0.09613   -0.47383   0.85681   0.20417   89.25476
252   0.09614   -0.47468   0.85662   0.20280   0.09614   -0.47468   0.85662   0.20280   89.34326
253   0.09615   -0.47340   0.85708   0.20341   0.09615   -0.47340   0.85708   0.20341   89.25781
254   0.09610   -0.47493   0.85669   0.20225   0.09610   -0.47493   0.85669   0.20225   89.23340
255   0.09598   -0.47441   0.85617   0.20527   0.09598   -0.47441   0.85617   0.20527   89.21814
256   0.09609   -0.47468   0.85647   0.20362   0.09609   -0.47468   0.85647   0.20362   89.23035
257   0.09604   -0.47343   0.85690   0.20420   0.09604   -0.47343   0.85690   0.20420   89.26392
258   0.09607   -0.47450   0.85635   0.20447   0.09607   -0.47450   0.85635   0.20447   89.23950
259   0.09612   -0.47386   0.85672   0.20383   0.09612   -0.47386   0.85672   0.20383   89.26392
260   0.09614   -0.47465   0.85617   0.20463   0.09614   -0.47465   0.85617   0.20463   89.15100
261   0.09613   -0.47365   0.85678   0.20438   0.09613   -0.47365   0.85678   0.20438   89.13879
262   0.09609   -0.47459   0.85644   0.20365   0.09609   -0.47459   0.85644   0.20365   89.33716
263   0.09622   -0.47313   0.85669   0.20563   0.09622   -0.47313   0.85669   0.20563   89.14185
264   0.09617   -0.47319   0.85720   0.20359   0.09617   -0.47319   0.85720   0.20359   89.23035
265   0.09611   -0.47313   0.85726   0.20353   0.09611   -0.47313   0.85726   0.20353   89.38599
266   0.09613   -0.47441   0.85672   0.20273   0.09613   -0.47441   0.85672   0.20273   89.23645
267   0.09614   -0.47261   0.85726   0.20469   0.09614   -0.47261   0.85726   0.20469   89.21814
268   0.09601   -0.47328   0.85720   0.20377   0.09601   -0.47328   0.85720   0.20377   89.28833
269   0.09604   -0.47420   0.85684   0.20243   0.09604   -0.47420   0.85684   0.20243   89.35852
270   0.09607   -0.47343   0.85717   0.20301   0.09607   -0.47343   0.85717   0.20301   89.30664
271   0.09612   -0.47398   0.85696   0.20319   0.09612   -0.47398   0.85696   0.20319   89.30969
272   0.09610   -0.47349   0.85717   0.20338   0.09610   -0.47349   0.85717   0.20338   89.24255
273   0.09606   -0.47392   0.85711   0.20222   0.09606   -0.47392   0.85711   0.20222   89.36157
274   0.09613   -0.47346   0.85739   0.20264   0.09613   -0.47346   0.85739   0.20264   89.35852
275   0.09618   -0.47380   0.85720   0.20225   0.09618   -0.47380   0.85720   0.20225   89.34631
276   0.09612   -0.47490   0.85687   0.20139   0.09612   -0.47490   0.85687   0.20139   89.36768
277   0.09609   -0.47594   0.85659   0.19938   0.09609   -0.47594   0.85659   0.19938   89.48059
278   0.09616   -0.47453   0.85699   0.20139   0.09616   -0.47453   0.85699   0.20139   89.38293
279   0.09617   -0.47383   0.85717   0.20222   0.09617   -0.47383   0.85717   0.20222   89.31580
280   0.09606   -0.47291   0.85754   0.20295   0.09606   -0.47291   0.85754   0.20295   89.26697
281   0.09597   -0.47343   0.85684   0.20463   0.09597   -0.47343   0.85684   0.20463   89.26697
282   0.09613   -0.47203   0.85748   0.20508   0.09613   -0.47203   0.85748   0.20508   89.17847
283   0.09611   -0.47313   0.85665   0.20615   0.09611   -0.47313   0.85665   0.20615   89.15710
284   0.09604   -0.47325   0.85723   0.20399   0.09604   -0.47325   0.85723   0.20399   89.34021
285   0.09605   -0.47450   0.85626   0.20487   0.09605   -0.47450   0.85626   0.20487   89.27307
286   0.09613   -0.47429   0.85662   0.20362   0.09613   -0.47429   0.85662   0.20362   89.29138
287   0.09614   -0.47523   0.85662   0.20151   0.09614   -0.47523   0.85662   0.20151   89.29443
288   0.09609   -0.47447   0.85678   0.20264   0.09609   -0.47447   0.85678   0.20264   89.35547
289   0.09614   -0.47420   0.85653   0.20441   0.09614   -0.47420   0.85653   0.20441   89.23645
290   0.09620   -0.47392   0.85665   0.20435   0.09620   -0.47392   0.85665   0.20435   89.22424
291   0.09616   -0.47270   0.85717   0.20496   0.09616   -0.47270   0.85717   0.20496   89.21204
292   0.09610   -0.47337   0.85684   0.20484   0.09610   -0.47337   0.85684   0.20484   89.20288
293   0.09600   -0.47404   0.85669   0.20344   0.09600   -0.47404   0.85669   0.20344   89.36462
294   0.09611   -0.47200   0.85763   0.20484   0.09611   -0.47200   0.85763   0.20484   89.23340
295   0.09610   -0.47322   0.85723   0.20362   0.09610   -0.47322   0.85723   0.20362   89.21204
296   0.09609   -0.47203   0.85757   0.20472   0.09609   -0.47203   0.85757   0.20472   89.22119
297   0.09607   -0.47438   0.85656   0.20368   0.09607   -0.47438   0.85656   0.20368   89.32495
298   0.09612   -0.47295   0.85684   0.20563   0.09612   -0.47295   0.85684   0.20563   89.20593
299   0.09613   -0.47401   0.85672   0.20396   0.09613   -0.47401   0.85672   0.20396   89.23645
300   0.09613   -0.47420   0.85653   0.20441   0.09613   -0.47420   0.85653   0.20441   89.26392
301   0.09627   -0.47407   0.85638   0.20536   0.09627   -0.47407   0.85638   0.20536   89.19373
302   0.09624   -0.47423   0.85681   0.20350   0.09624   -0.47423   0.85681   0.20350   89.23950
303   0.09617   -0.47365   0.85693   0.20359   0.09617   -0.47365   0.85693   0.20359   89.27917
304   0.09613   -0.47349   0.85693   0.20420   0.09613   -0.47349   0.85693   0.20420   89.20593
305   0.09616   -0.47383   0.85669   0.20447   0.09616   -0.47383   0.85669   0.20447   89.12659
306   0.09600   -0.47392   0.85644   0.20496   0.09600   -0.47392   0.85644   0.20496   89.20288
307   0.09601   -0.47371   0.85690   0.20411   0.09601   -0.47371   0.85690   0.20411   89.22119
308   0.09605   -0.47493   0.85595   0.20527   0.09605   -0.47493   0.85595   0.20527   89.15100
309   0.09606   -0.47478   0.85607   0.20490   0.09606   -0.47478   0.85607   0.20490   89.17236
310   0.09599   -0.47481   0.85617   0.20460   0.09599   -0.47481   0.85617   0.20460   89.29749
311   0.09609   -0.47505   0.85601   0.20460   0.09609   -0.47505   0.85601   0.20460   89.20288
312   0.09614   -0.47468   0.85614   0.20460   0.09614   -0.47468   0.85614   0.20460   89.20898
313   0.09613   -0.47539   0.85592   0.20380   0.09613   -0.47539   0.85592   0.20380   89.21509
314   0.09608   -0.47423   0.85638   0.20466   0.09608   -0.47423   0.85638   0.20466   89.27002
315   0.09609   -0.47420   0.85653   0.20411   0.09609   -0.47420   0.85653   0.20411   89.26086
316   0.09617   -0.47493   0.85586   0.20539   0.09617   -0.47493   0.85586   0.20539   89.17542
317   0.09605   -0.47591   0.85549   0.20484   0.09605   -0.47591   0.85549   0.20484   89.12048
318   0.09572   -0.47551   0.85580   0.20402   0.09572   -0.47551   0.85580   0.20402   89.25476
319   0.09586   -0.47597   0.85583   0.20301   0.09586   -0.47597   0.85583   0.20301   89.19678
320   0.09615   -0.47563   0.85568   0.20426   0.09615   -0.47563   0.85568   0.20426   89.15405
321   0.09610   -0.47520   0.85601   0.20389   0.09610   -0.47520   0.85601   0.20389   89.24255
322   0.09593   -0.47652   0.85540   0.20338   0.09593   -0.47652   0.85540   0.20338   89.28223
323   0.09601   -0.47600   0.85553   0.20438   0.09601   -0.47600   0.85553   0.20438   89.14490
324   0.09610   -0.47456   0.85607   0.20524   0.09610   -0.47456   0.85607   0.20524   89.14795
325   0.09606   -0.47536   0.85565   0.20481   0.09606   -0.47536   0.85565   0.20481   89.24866
326   0.09604   -0.47609   0.85537   0.20472   0.09604   -0.47609   0.85537   0.20472   89.29138
327   0.09612   -0.47444   0.85607   0.20573   0.09612   -0.47444   0.85607   0.20573   89.17847
328   0.09614   -0.47560   0.85565   0.20484   0.09614   -0.47560   0.85565   0.20484   89.14185
329   0.09606   -0.47645   0.85510   0.20515   0.09606   -0.47645   0.85510   0.20515   89.20898
330   0.09604   -0.47511   0.85574   0.20542   0.09604   -0.47511   0.85574   0.20542   89.23340
331   0.09606   -0.47545   0.85537   0.20609   0.09606   -0.47545   0.85537   0.20609   89.16016
332   0.09601   -0.47496   0.85601   0.20447   0.09601   -0.47496   0.85601   0.20447   89.15405
333   0.09599   -0.47652   0.85510   0.20502   0.09599   -0.47652   0.85510   0.20502   89.17236
334   0.09601   -0.47688   0.85495   0.20505   0.09601   -0.47688   0.85495   0.20505   89.21204
335   0.09613   -0.47554   0.85562   0.20508   0.09613   -0.47554   0.85562   0.20508   89.16931
336   0.09616   -0.47551   0.85531   0.20649   0.09616   -0.47551   0.85531   0.20649   89.12659
337   0.09611   -0.47493   0.85577   0.20591   0.09611   -0.47493   0.85577   0.20591   89.26086
338   0.09614   -0.47514   0.85553   0.20579   0.09614   -0.47514   0.85553   0.20579   89.15100
339   0.09622   -0.47606   0.85516   0.20600   0.09622   -0.47606   0.85516   0.20600   89.09302
340   0.09616   -0.47530   0.85565   0.20518   0.09616   -0.47530   0.85565   0.20518   89.24866
341   0.09617   -0.47725   0.85464   0.20505   0.09617   -0.47725   0.85464   0.20505   89.23035
342   0.09623   -0.47682   0.85443   0.20670   0.09623   -0.47682   0.85443   0.20670   89.12354
343   0.09609   -0.47752   0.85464   0.20460   0.09609   -0.47752   0.85464   0.20460   89.17542
344   0.09600   -0.47844   0.85409   0.20481   0.09600   -0.47844   0.85409   0.20481   89.17236
345   0.09594   -0.47880   0.85376   0.20457   0.09594   -0.47880   0.85376   0.20457   89.25171
346   0.09605   -0.47954   0.85366   0.20377   0.09605   -0.47954   0.85366   0.20377   89.21814
347   0.09603   -0.47801   0.85406   0.20557   0.09603   -0.47801   0.85406   0.20557   89.12964
348   0.09601   -0.47996   0.85354   0.20286   0.09601   -0.47996   0.85354   0.20286   89.24255
349   0.09607   -0.47792   0.85379   0.20692   0.09607   -0.47792   0.85379   0.20692   89.13269
350   0.09614   -0.47853   0.85382   0.20554   0.09614   -0.47853   0.85382   0.20554   89.09607
351   0.09605   -0.47932   0.85345   0.20508   0.09605   -0.47932   0.85345   0.20508   89.16931
352   0.09605   -0.47935   0.85342   0.20542   0.09605   -0.47935   0.85342   0.20542   89.19067
353   0.09614   -0.47835   0.85357   0.20679   0.09614   -0.47835   0.85357   0.20679   89.06555
354   0.09614   -0.47884   0.85366   0.20518   0.09614   -0.47884   0.85366   0.20518   89.17236
355   0.09609   -0.47679   0.85452   0.20661   0.09609   -0.47679   0.85452   0.20661   89.11743
356   0.09604   -0.47798   0.85354   0.20753   0.09604   -0.47798   0.85354   0.20753   89.08081
357   0.09600   -0.47929   0.85333   0.20585   0.09600   -0.47929   0.85333   0.20585   89.13574
358   0.09599   -0.47725   0.85400   0.20740   0.09599   -0.47725   0.85400   0.20740   89.09607
359   0.09597   -0.47868   0.85330   0.20710   0.09597   -0.47868   0.85330   0.20710   89.13269
360   0.09599   -0.47871   0.85354   0.20594   0.09599   -0.47871   0.85354   0.20594   89.19983
361   0.09611   -0.47856   0.85345   0.20655   0.09611   -0.47856   0.85345   0.20655   89.05334
362   0.09602   -0.47920   0.85318   0.20661   0.09602   -0.47920   0.85318   0.20661   89.12659
363   0.09601   -0.47920   0.85327   0.20618   0.09601   -0.47920   0.85327   0.20618   89.21204
364   0.09607   -0.47911   0.85272   0.20856   0.09607   -0.47911   0.85272   0.20856   89.01062
365   0.09615   -0.47996   0.85275   0.20640   0.09615   -0.47996   0.85275   0.20640   89.04724
366   0.09608   -0.48137   0.85223   0.20542   0.09608   -0.48137   0.85223   0.20542   89.08691
367   0.09604   -0.48051   0.85241   0.20661   0.09604   -0.48051   0.85241   0.20661   89.23340
368   0.09608   -0.48048   0.85238   0.20698   0.09608   -0.48048   0.85238   0.20698   89.09607
369   0.09608   -0.48033   0.85257   0.20670   0.09608   -0.48033   0.85257   0.20670   89.00146
370   0.09593   -0.48115   0.85220   0.20606   0.09593   -0.48115   0.85220   0.20606   89.09912
371   0.09596   -0.47966   0.85272   0.20722   0.09596   -0.47966   0.85272   0.20722   89.11133
372   0.09605   -0.48067   0.85205   0.20820   0.09605   -0.48067   0.85205   0.20820   88.92212
373   0.09605   -0.48076   0.85223   0.20679   0.09605   -0.48076   0.85223   0.20679   88.98926
374   0.09604   -0.47978   0.85290   0.20634   0.09604   -0.47978   0.85290   0.20634   89.08081
375   0.09606   -0.47862   0.85308   0.20817   0.09606   -0.47862   0.85308   0.20817   89.06555
376   0.09610   -0.47990   0.85238   0.20786   0.09610   -0.47990   0.85238   0.20786   89.05029
377   0.09607   -0.48036   0.85244   0.20734   0.09607   -0.48036   0.85244   0.20734   89.00146
378   0.09607   -0.48054   0.85235   0.20719   0.09607   -0.48054   0.85235   0.20719   89.02893
379   0.09608   -0.48009   0.85235   0.20817   0.09608   -0.48009   0.85235   0.20817   89.07776
380   0.09611   -0.48048   0.85211   0.20756   0.09611   -0.48048   0.85211   0.20756   89.07166
381   0.09604   -0.48076   0.85232   0.20679   0.09604   -0.48076   0.85232   0.20679   89.10217
382   0.09599   -0.48027   0.85241   0.20695   0.09599   -0.48027   0.85241   0.20695   89.02893
383   0.09597   -0.48006   0.85253   0.20704   0.09597   -0.48006   0.85253   0.20704   89.06555
384   0.09600   -0.48131   0.85171   0.20789   0.09600   -0.48131   0.85171   0.20789   88.97400
385   0.09594   -0.48054   0.85208   0.20801   0.09594   -0.48054   0.85208   0.20801   88.98621
386   0.09601   -0.48189   0.85134   0.20832   0.09601   -0.48189   0.85134   0.20832   88.97400
387   0.09605   -0.48033   0.85220   0.20795   0.09605   -0.48033   0.85220   0.20795   89.05640
388   0.09604   -0.48097   0.85171   0.20884   0.09604   -0.48097   0.85171   0.20884   88.97705
389   0.09601   -0.48024   0.85235   0.20792   0.09601   -0.48024   0.85235   0.20792   89.05945
390   0.09613   -0.48036   0.85226   0.20762   0.09613   -0.48036   0.85226   0.20762   89.00757
391   0.09611   -0.48082   0.85180   0.20829   0.09611   -0.48082   0.85180   0.20829   88.98621
392   0.09607   -0.48122   0.85183   0.20722   0.09607   -0.48122   0.85183   0.20722   89.05640
393   0.09607   -0.48085   0.85202   0.20786   0.09607   -0.48085   0.85202   0.20786   89.01062
394   0.09611   -0.48070   0.85195   0.20829   0.09611   -0.48070   0.85195   0.20829   88.98621
395   0.09605   -0.48192   0.85113   0.20826   0.09605   -0.48192   0.85113   0.20826   88.92212
396   0.09592   -0.48210   0.85125   0.20740   0.09592   -0.48210   0.85125   0.20740   88.91602
397   0.09599   -0.48183   0.85162   0.20713   0.09599   -0.48183   0.85162   0.20713   89.03809
398   0.09605   -0.48119   0.85168   0.20792   0.09605   -0.48119   0.85168   0.20792   88.92212
399   0.09603   -0.48250   0.85134   0.20655   0.09603   -0.48250   0.85134   0.20655   88.97705
400   0.09583   -0.48357   0.85083   0.20600   0.09583   -0.48357   0.85083   0.20600   89.06860
401   0.09579   -0.48302   0.85083   0.20746   0.09579   -0.48302   0.85083   0.20746   88.96790
402   0.09604   -0.48332   0.85058   0.20762   0.09604   -0.48332   0.85058   0.20762   88.94043
403   0.09615   -0.48451   0.84970   0.20817   0.09615   -0.48451   0.84970   0.20817   88.91602
404   0.09607   -0.48354   0.85031   0.20814   0.09607   -0.48354   0.85031   0.20814   89.02893
405   0.09606   -0.48235   0.85098   0.20804   0.09606   -0.48235   0.85098   0.20804   89.01978
406   0.09609   -0.48323   0.85043   0.20823   0.09609   -0.48323   0.85043   0.20823   88.89771
407   0.09604   -0.48326   0.85076   0.20722   0.09604   -0.48326   0.85076   0.20722   88.99536
408   0.09595   -0.48482   0.85043   0.20475   0.09595   -0.48482   0.85043   0.20475   89.16016
409   0.09598   -0.48497   0.85003   0.20621   0.09598   -0.48497   0.85003   0.20621   88.96179
410   0.09604   -0.48408   0.85064   0.20573   0.09604   -0.48408   0.85064   0.20573   89.04419
411   0.09598   -0.48479   0.85015   0.20588   0.09598   -0.48479   0.85015   0.20588   89.01062
412   0.09593   -0.48610   0.84945   0.20582   0.09593   -0.48610   0.84945   0.20582   89.14795
413   0.09602   -0.48405   0.85028   0.20710   0.09602   -0.48405   0.85028   0.20710   88.94653
414   0.09604   -0.48405   0.85012   0.20768   0.09604   -0.48405   0.85012   0.20768   88.94958
415   0.09604   -0.48454   0.84973   0.20801   0.09604   -0.48454   0.84973   0.20801   88.92822
416   0.09607   -0.48463   0.84976   0.20814   0.09607   -0.48463   0.84976   0.20814   88.90686
417   0.09609   -0.48372   0.84997   0.20972   0.09609   -0.48372   0.84997   0.20972   88.86108
418   0.09622   -0.48393   0.85006   0.20862   0.09622   -0.48393   0.85006   0.20862   88.92212
419   0.09614   -0.48393   0.85012   0.20829   0.09614   -0.48393   0.85012   0.20829   88.96179
420   0.09593   -0.48521   0.84924   0.20875   0.09593   -0.48521   0.84924   0.20875   88.90991
421   0.09582   -0.48326   0.85034   0.20896   0.09582   -0.48326   0.85034   0.20896   88.93433
422   0.09593   -0.48476   0.84982   0.20756   0.09593   -0.48476   0.84982   0.20756   88.96484
423   0.09610   -0.48375   0.85028   0.20753   0.09610   -0.48375   0.85028   0.20753   88.95569
424   0.09609   -0.48592   0.84899   0.20841   0.09609   -0.48592   0.84899   0.20841   88.87024
425   0.09598   -0.48338   0.85000   0.21000   0.09598   -0.48338   0.85000   0.21000   88.94348
426   0.09593   -0.48521   0.84939   0.20826   0.09593   -0.48521   0.84939   0.20826   88.86108
427   0.09605   -0.48485   0.84948   0.20878   0.09605   -0.48485   0.84948   0.20878   88.79700
428   0.09609   -0.48570   0.84927   0.20725   0.09609   -0.48570   0.84927   0.20725   88.93738
429   0.09605   -0.48589   0.84936   0.20682   0.09605   -0.48589   0.84936   0.20682   88.94043
430   0.09598   -0.48540   0.84924   0.20844   0.09598   -0.48540   0.84924   0.20844   88.91296
431   0.09609   -0.48384   0.84988   0.20911   0.09609   -0.48384   0.84988   0.20911   88.89771
432   0.09612   -0.48427   0.84982   0.20878   0.09612   -0.48427   0.84982   0.20878   88.83362
433   0.09604   -0.48427   0.84951   0.20975   0.09604   -0.48427   0.84951   0.20975   88.86414
434   0.09588   -0.48402   0.84997   0.20890   0.09588   -0.48402   0.84997   0.20890   88.96790
435   0.09609   -0.48384   0.84979   0.20957   0.09609   -0.48384   0.84979   0.20957   88.95569
436   0.09614   -0.48469   0.84954   0.20835   0.09614   -0.48469   0.84954   0.20835   88.86414
437   0.09582   -0.48381   0.84979   0.20960   0.09582   -0.48381   0.84979   0.20960   88.83667
438   0.09578   -0.48430   0.84970   0.20872   0.09578   -0.48430   0.84970   0.20872   88.94653
439   0.09609   -0.48173   0.85080   0.21076   0.09609   -0.48173   0.85080   0.21076   88.90686
440   0.09610   -0.48350   0.84951   0.21152   0.09610   -0.48350   0.84951   0.21152   88.76648
441   0.09593   -0.48518   0.84909   0.20954   0.09593   -0.48518   0.84909   0.20954   88.83972
442   0.09596   -0.48375   0.85000   0.20948   0.09596   -0.48375   0.85000   0.20948   88.91296
443   0.09604   -0.48561   0.84933   0.20753   0.09604   -0.48561   0.84933   0.20753   88.90991
444   0.09608   -0.48363   0.85034   0.20759   0.09608   -0.48363   0.85034   0.20759   88.92517
445   0.09594   -0.48363   0.84985   0.20981   0.09594   -0.48363   0.84985   0.20981   88.95874
446   0.09593   -0.48476   0.84945   0.20847   0.09593   -0.48476   0.84945   0.20847   88.93738
447   0.09593   -0.48567   0.84912   0.20829   0.09593   -0.48567   0.84912   0.20829   88.87024
448   0.09594   -0.48436   0.84957   0.20939   0.09594   -0.48436   0.84957   0.20939   88.90991
449   0.09588   -0.48491   0.84954   0.20789   0.09588   -0.48491   0.84954   0.20789   88.95874
450   0.09595   -0.48558   0.84906   0.20862   0.09595   -0.48558   0.84906   0.20862   88.93127
451   0.09603   -0.48448   0.84982   0.20771   0.09603   -0.48448   0.84982   0.20771   88.87024
452   0.09601   -0.48445   0.84967   0.20875   0.09601   -0.48445   0.84967   0.20875   88.89771
453   0.09597   -0.48387   0.84957   0.21021   0.09597   -0.48387   0.84957   0.21021   88.92212
454   0.09604   -0.48314   0.85000   0.21049   0.09604   -0.48314   0.85000   0.21049   88.91907
455   0.09611   -0.48335   0.85000   0.21000   0.09611   -0.48335   0.85000   0.21000   88.80615
456   0.09601   -0.48424   0.84967   0.20948   0.09601   -0.48424   0.84967   0.20948   88.88855
457   0.09603   -0.48329   0.85003   0.20978   0.09603   -0.48329   0.85003   0.20978   88.97705
458   0.09605   -0.48415   0.84964   0.20951   0.09605   -0.48415   0.84964   0.20951   88.83667
459   0.09600   -0.48412   0.84957   0.20963   0.09600   -0.48412   0.84957   0.20963   88.80005
460   0.09587   -0.48360   0.84997   0.20969   0.09587   -0.48360   0.84997   0.20969   88.88245
461   0.09598   -0.48231   0.85028   0.21146   0.09598   -0.48231   0.85028   0.21146   88.83667
462   0.09601   -0.48286   0.85009   0.21058   0.09601   -0.48286   0.85009   0.21058   88.82141
463   0.09601   -0.48344   0.84997   0.20969   0.09601   -0.48344   0.84997   0.20969   88.75427
464   0.09597   -0.48314   0.85015   0.20981   0.09597   -0.48314   0.85015   0.20981   88.89465
465   0.09608   -0.48256   0.85025   0.21049   0.09608   -0.48256   0.85025   0.21049   88.88855
466   0.09604   -0.48314   0.84991   0.21085   0.09604   -0.48314   0.84991   0.21085   88.89160
467   0.09602   -0.48317   0.85031   0.20887   0.09602   -0.48317   0.85031   0.20887   88.90991
468   0.09604   -0.48350   0.85018   0.20908   0.09604   -0.48350   0.85018   0.20908   88.90991
469   0.09615   -0.48195   0.85067   0.21058   0.09615   -0.48195   0.85067   0.21058   88.74207
470   0.09608   -0.48247   0.85028   0.21082   0.09608   -0.48247   0.85028   0.21082   88.82141
471   0.09599   -0.48192   0.85064   0.21049   0.09599   -0.48192   0.85064   0.21049   88.87634
472   0.09602   -0.48244   0.85015   0.21177   0.09602   -0.48244   0.85015   0.21177   88.72681
473   0.09597   -0.48274   0.85028   0.21052   0.09597   -0.48274   0.85028   0.21052   88.82751
474   0.09599   -0.48228   0.85031   0.21125   0.09599   -0.48228   0.85031   0.21125   88.78174
475   0.09591   -0.48250   0.85052   0.20981   0.09591   -0.48250   0.85052   0.20981   88.93433
476   0.09603   -0.48140   0.85031   0.21326   0.09603   -0.48140   0.85031   0.21326   88.79395
477   0.09611   -0.48259   0.85006   0.21165   0.09611   -0.48259   0.85006   0.21165   88.70850
478   0.09605   -0.48265   0.85034   0.21046   0.09605   -0.48265   0.85034   0.21046   88.75122
479   0.09598   -0.48277   0.85022   0.21049   0.09598   -0.48277   0.85022   0.21049   88.85803
480   0.09611   -0.48378   0.84976   0.20972   0.09611   -0.48378   0.84976   0.20972   88.79395
481   0.09608   -0.48189   0.85076   0.21052   0.09608   -0.48189   0.85076   0.21052   88.83057
482   0.09603   -0.48235   0.85009   0.21171   0.09603   -0.48235   0.85009   0.21171   88.83362
483   0.09605   -0.48268   0.85015   0.21094   0.09605   -0.48268   0.85015   0.21094   88.88245
484   0.09608   -0.48183   0.85049   0.21149   0.09608   -0.48183   0.85049   0.21149   88.79089
485   0.09599   -0.48146   0.85049   0.21247   0.09599   -0.48146   0.85049   0.21247   88.79089
486   0.09592   -0.48000   0.85150   0.21165   0.09592   -0.48000   0.85150   0.21165   88.83972
487   0.09595   -0.48219   0.85006   0.21256   0.09595   -0.48219   0.85006   0.21256   88.87329
488   0.09601   -0.48177   0.85073   0.21100   0.09601   -0.48177   0.85073   0.21100   88.86108
489   0.09601   -0.48241   0.85046   0.21006   0.09601   -0.48241   0.85046   0.21006   88.87939
490   0.09599   -0.48320   0.85009   0.20985   0.09599   -0.48320   0.85009   0.20985   88.84888
491   0.09602   -0.48308   0.85028   0.20951   0.09602   -0.48308   0.85028   0.20951   88.93738
492   0.09608   -0.48262   0.85046   0.20991   0.09608   -0.48262   0.85046   0.20991   88.82141
493   0.09605   -0.48225   0.85049   0.21039   0.09605   -0.48225   0.85049   0.21039   88.89465
494   0.09603   -0.48369   0.84967   0.21052   0.09603   -0.48369   0.84967   0.21052   88.84277
495   0.09611   -0.48369   0.84967   0.21058   0.09611   -0.48369   0.84967   0.21058   88.81531
496   0.09603   -0.48543   0.84878   0.21027   0.09603   -0.48543   0.84878   0.21027   88.78479
497   0.09599   -0.48363   0.84945   0.21119   0.09599   -0.48363   0.84945   0.21119   88.74207
498   0.09589   -0.48390   0.84973   0.20966   0.09589   -0.48390   0.84973   0.20966   88.91296
499   0.09595   -0.48299   0.85067   0.20814   0.09595   -0.48299   0.85067   0.20814   88.88245
500   0.09594   -0.48338   0.85028   0.20896   0.09594   -0.48338   0.85028   0.20896   88.91907
501   0.09604   -0.48259   0.85034   0.21021   0.09604   -0.48259   0.85034   0.21021   88.91907
502   0.09614   -0.48347   0.85003   0.20930   0.09614   -0.48347   0.85003   0.20930   88.86414
503   0.09605   -0.48180   0.85089   0.21021   0.09605   -0.48180   0.85089   0.21021   88.90076
504   0.09597   -0.48311   0.85000   0.21061   0.09597   -0.48311   0.85000   0.21061   88.81836
505   0.09605   -0.48277   0.85040   0.20963   0.09605   -0.48277   0.85040   0.20963   88.83667
506   0.09614   -0.48259   0.85043   0.21000   0.09614   -0.48259   0.85043   0.21000   88.82751
507   0.09607   -0.48289   0.85006   0.21079   0.09607   -0.48289   0.85006   0.21079   88.79089
508   0.09603   -0.48347   0.85025   0.20869   0.09603   -0.48347   0.85025   0.20869   88.86108
509   0.09601   -0.48354   0.85006   0.20942   0.09601   -0.48354   0.85006   0.20942   88.87024
510   0.09605   -0.48280   0.85003   0.21088   0.09605   -0.48280   0.85003   0.21088   88.84583
511   0.09587   -0.48402   0.84970   0.20939   0.09587   -0.48402   0.84970   0.20939   88.93127
512   0.09589   -0.48479   0.84924   0.20945   0.09589   -0.48479   0.84924   0.20945   88.90381
513   0.09593   -0.48308   0.85076   0.20759   0.09593   -0.48308   0.85076   0.20759   89.01367
514   0.09601   -0.48354   0.85006   0.20905   0.09601   -0.48354   0.85006   0.20905   88.89771
515   0.09601   -0.48268   0.85095   0.20777   0.09601   -0.48268   0.85095   0.20777   88.96484
516   0.09597   -0.48369   0.85043   0.20746   0.09597   -0.48369   0.85043   0.20746   89.03809
517   0.09604   -0.48326   0.85046   0.20841   0.09604   -0.48326   0.85046   0.20841   88.90076
518   0.09575   -0.48265   0.85092   0.20798   0.09575   -0.48265   0.85092   0.20798   88.95569
519   0.09592   -0.48253   0.85104   0.20722   0.09592   -0.48253   0.85104   0.20722   88.87634
520   0.09606   -0.48329   0.84982   0.21058   0.09606   -0.48329   0.84982   0.21058   88.95264
521   0.09616   -0.48253   0.85012   0.21125   0.09616   -0.48253   0.85012   0.21125   88.88855
522   0.09605   -0.48094   0.85119   0.21073   0.09605   -0.48094   0.85119   0.21073   88.91296
523   0.09592   -0.48082   0.85150   0.20963   0.09592   -0.48082   0.85150   0.20963   88.93433
524   0.09586   -0.48155   0.85110   0.20991   0.09586   -0.48155   0.85110   0.20991   88.95874
525   0.09605   -0.48054   0.85137   0.21073   0.09605   -0.48054   0.85137   0.21073   88.89465
526   0.09605   -0.48061   0.85156   0.21009   0.09605   -0.48061   0.85156   0.21009   88.88245
527   0.09595   -0.48317   0.84994   0.21067   0.09595   -0.48317   0.84994   0.21067   88.83362
528   0.09602   -0.47658   0.85372   0.21012   0.09602   -0.47658   0.85372   0.21012   89.01367
529   0.09608   -0.47890   0.85232   0.21097   0.09608   -0.47890   0.85232   0.21097   88.87634
530   0.09610   -0.47978   0.85205   0.20957   0.09610   -0.47978   0.85205   0.20957   88.85193
531   0.09606   -0.47826   0.85220   0.21265   0.09606   -0.47826   0.85220   0.21265   88.90381
532   0.09613   -0.47902   0.85260   0.20951   0.09613   -0.47902   0.85260   0.20951   88.93127
533   0.09613   -0.47862   0.85223   0.21158   0.09613   -0.47862   0.85223   0.21158   88.85498
534   0.09613   -0.47841   0.85281   0.20994   0.09613   -0.47841   0.85281   0.20994   88.89160
535   0.09613   -0.47899   0.85278   0.20847   0.09613   -0.47899   0.85278   0.20847   89.06555
536   0.09616   -0.47969   0.85220   0.20939   0.09616   -0.47969   0.85220   0.20939   88.88855
537   0.09600   -0.47905   0.85235   0.20997   0.09600   -0.47905   0.85235   0.20997   88.98315
538   0.09602   -0.47734   0.85379   0.20826   0.09602   -0.47734   0.85379   0.20826   89.04114
539   0.09611   -0.47938   0.85244   0.20942   0.09611   -0.47938   0.85244   0.20942   88.91907
540   0.09615   -0.47996   0.85220   0.20859   0.09615   -0.47996   0.85220   0.20859   88.99231
541   0.09612   -0.47865   0.85305   0.20823   0.09612   -0.47865   0.85305   0.20823   89.04419
542   0.09614   -0.47945   0.85235   0.20930   0.09614   -0.47945   0.85235   0.20930   88.94043
543   0.09616   -0.47969   0.85238   0.20862   0.09616   -0.47969   0.85238   0.20862   89.01978
544   0.09617   -0.47868   0.85299   0.20832   0.09617   -0.47868   0.85299   0.20832   89.03198
545   0.09608   -0.48018   0.85266   0.20627   0.09608   -0.48018   0.85266   0.20627   89.07776
546   0.09614   -0.47920   0.85293   0.20780   0.09614   -0.47920   0.85293   0.20780   88.99841
547   0.09623   -0.47749   0.85366   0.20859   0.09623   -0.47749   0.85366   0.20859   88.93433
548   0.09608   -0.47801   0.85372   0.20719   0.09608   -0.47801   0.85372   0.20719   89.07776
549   0.09596   -0.47859   0.85339   0.20698   0.09596   -0.47859   0.85339   0.20698   89.11133
550   0.09599   -0.47810   0.85357   0.20740   0.09599   -0.47810   0.85357   0.20740   89.06860
551   0.09611   -0.47743   0.85400   0.20728   0.09611   -0.47743   0.85400   0.20728   89.03198
552   0.09603   -0.47697   0.85418   0.20768   0.09603   -0.47697   0.85418   0.20768   89.07166
553   0.09604   -0.47581   0.85482   0.20762   0.09604   -0.47581   0.85482   0.20762   89.07166
554   0.09605   -0.47853   0.85345   0.20719   0.09605   -0.47853   0.85345   0.20719   89.04724
555   0.09614   -0.47734   0.85397   0.20783   0.09614   -0.47734   0.85397   0.20783   89.08386
556   0.09609   -0.47615   0.85464   0.20759   0.09609   -0.47615   0.85464   0.20759   89.12659
557   0.09607   -0.47633   0.85470   0.20707   0.09607   -0.47633   0.85470   0.20707   89.12354
558   0.09613   -0.47707   0.85394   0.20853   0.09613   -0.47707   0.85394   0.20853   89.02588
559   0.09617   -0.47691   0.85449   0.20640   0.09617   -0.47691   0.85449   0.20640   89.06860
560   0.09607   -0.47667   0.85455   0.20676   0.09607   -0.47667   0.85455   0.20676   89.15405
561   0.09603   -0.47755   0.85400   0.20698   0.09603   -0.47755   0.85400   0.20698   89.11133
562   0.09602   -0.47682   0.85430   0.20716   0.09602   -0.47682   0.85430   0.20716   89.10828
563   0.09601   -0.47697   0.85434   0.20737   0.09601   -0.47697   0.85434   0.20737   89.08997
564   0.09601   -0.47636   0.85482   0.20661   0.09601   -0.47636   0.85482   0.20661   89.14490
565   0.09604   -0.47685   0.85449   0.20649   0.09604   -0.47685   0.85449   0.20649   89.15710
566   0.09613   -0.47612   0.85501   0.20621   0.09613   -0.47612   0.85501   0.20621   89.08386
567   0.09611   -0.47508   0.85546   0.20698   0.09611   -0.47508   0.85546   0.20698   89.04419
568   0.09609   -0.47572   0.85498   0.20704   0.09609   -0.47572   0.85498   0.20704   89.14490
569   0.09614   -0.47588   0.85452   0.20878   0.09614   -0.47588   0.85452   0.20878   88.97095
570   0.09615   -0.47530   0.85488   0.20875   0.09615   -0.47530   0.85488   0.20875   89.06860
571   0.09613   -0.47502   0.85540   0.20734   0.09613   -0.47502   0.85540   0.20734   89.06555
572   0.09614   -0.47566   0.85482   0.20771   0.09614   -0.47566   0.85482   0.20771   89.04724
573   0.09616   -0.47505   0.85522   0.20759   0.09616   -0.47505   0.85522   0.20759   89.06860
574   0.09612   -0.47429   0.85546   0.20820   0.09612   -0.47429   0.85546   0.20820   89.01672
575   0.09601   -0.47548   0.85531   0.20646   0.09601   -0.47548   0.85531   0.20646   89.08997
576   0.09603   -0.47487   0.85516   0.20841   0.09603   -0.47487   0.85516   0.20841   89.08081
577   0.09607   -0.47517   0.85516   0.20814   0.09607   -0.47517   0.85516   0.20814   89.08691
578   0.09606   -0.47600   0.85485   0.20704   0.09606   -0.47600   0.85485   0.20704   89.07471
579   0.09608   -0.47511   0.85510   0.20783   0.09608   -0.47511   0.85510   0.20783   89.01062
580   0.09616   -0.47566   0.85516   0.20667   0.09616   -0.47566   0.85516   0.20667   89.04114
581   0.09622   -0.47447   0.85549   0.20792   0.09622   -0.47447   0.85549   0.20792   88.98926
582   0.09614   -0.47502   0.85540   0.20728   0.09614   -0.47502   0.85540   0.20728   88.98926
583   0.09611   -0.47545   0.85504   0.20750   0.09611   -0.47545   0.85504   0.20750   89.07166
584   0.09618   -0.47520   0.85504   0.20774   0.09618   -0.47520   0.85504   0.20774   89.03198
585   0.09624   -0.47407   0.85559   0.20853   0.09624   -0.47407   0.85559   0.20853   88.91602
586   0.09609   -0.47645   0.85476   0.20640   0.09609   -0.47645   0.85476   0.20640   89.11743
587   0.09604   -0.47554   0.85498   0.20756   0.09604   -0.47554   0.85498   0.20756   89.13879
588   0.09607   -0.47584   0.85510   0.20615   0.09607   -0.47584   0.85510   0.20615   89.01062
589   0.09607   -0.47588   0.85516   0.20591   0.09607   -0.47588   0.85516   0.20591   89.11438
590   0.09600   -0.47487   0.85568   0.20627   0.09600   -0.47487   0.85568   0.20627   89.19373
591   0.09603   -0.47496   0.85546   0.20722   0.09603   -0.47496   0.85546   0.20722   89.20593
592   0.09613   -0.47719   0.85464   0.20533   0.09613   -0.47719   0.85464   0.20533   89.12964
593   0.09613   -0.47530   0.85522   0.20725   0.09613   -0.47530   0.85522   0.20725   89.07471
594   0.09606   -0.47557   0.85525   0.20634   0.09606   -0.47557   0.85525   0.20634   89.15100
595   0.09613   -0.47468   0.85559   0.20685   0.09613   -0.47468   0.85559   0.20685   89.12048
596   0.09624   -0.47374   0.85571   0.20875   0.09624   -0.47374   0.85571   0.20875   88.91602
597   0.09614   -0.47514   0.85525   0.20750   0.09614   -0.47514   0.85525   0.20750   89.06555
598   0.09612   -0.47517   0.85553   0.20621   0.09612   -0.47517   0.85553   0.20621   89.17847
599   0.09616   -0.47380   0.85598   0.20753   0.09616   -0.47380   0.85598   0.20753   89.05945
600   0.09604   -0.47304   0.85659   0.20655   0.09604   -0.47304   0.85659   0.20655   89.11133
601   0.09577   -0.47392   0.85580   0.20740   0.09577   -0.47392   0.85580   0.20740   89.09912
602   0.09598   -0.47505   0.85565   0.20612   0.09598   -0.47505   0.85565   0.20612   89.08691
603   0.09614   -0.47429   0.85592   0.20685   0.09614   -0.47429   0.85592   0.20685   89.11133
604   0.09616   -0.47465   0.85553   0.20731   0.09616   -0.47465   0.85553   0.20731   89.05029
605   0.09607   -0.47548   0.85522   0.20637   0.09607   -0.47548   0.85522   0.20637   89.11438
606   0.09611   -0.47423   0.85586   0.20679   0.09611   -0.47423   0.85586   0.20679   89.12048
607   0.09622   -0.47267   0.85623   0.20887   0.09622   -0.47267   0.85623   0.20887   89.01672
608   0.09627   -0.47240   0.85662   0.20826   0.09627   -0.47240   0.85662   0.20826   89.01367
609   0.09625   -0.47035   0.85733   0.20975   0.09625   -0.47035   0.85733   0.20975   88.96484
610   0.09622   -0.47420   0.85562   0.20777   0.09622   -0.47420   0.85562   0.20777   89.06555
611   0.09618   -0.47282   0.85641   0.20798   0.09618   -0.47282   0.85641   0.20798   89.08997
612   0.09618   -0.47197   0.85720   0.20640   0.09618   -0.47197   0.85720   0.20640   89.02283
613   0.09609   -0.47246   0.85681   0.20676   0.09609   -0.47246   0.85681   0.20676   89.13574
614   0.09604   -0.47319   0.85644   0.20713   0.09604   -0.47319   0.85644   0.20713   89.12964
615   0.09611   -0.47264   0.85699   0.20600   0.09611   -0.47264   0.85699   0.20600   89.13879
616   0.09606   -0.47249   0.85690   0.20624   0.09606   -0.47249   0.85690   0.20624   89.15100
617   0.09616   -0.47273   0.85705   0.20521   0.09616   -0.47273   0.85705   0.20521   89.09607
618   0.09632   -0.47194   0.85705   0.20746   0.09632   -0.47194   0.85705   0.20746   89.10522
619   0.09629   -0.47218   0.85690   0.20731   0.09629   -0.47218   0.85690   0.20731   89.12964
620   0.09601   -0.47182   0.85733   0.20667   0.09601   -0.47182   0.85733   0.20667   89.13574
621   0.09608   -0.47243   0.85681   0.20737   0.09608   -0.47243   0.85681   0.20737   89.04114
622   0.09625   -0.47224   0.85708   0.20631   0.09625   -0.47224   0.85708   0.20631   89.08691
623   0.09629   -0.47136   0.85775   0.20588   0.09629   -0.47136   0.85775   0.20588   89.17847
624   0.09624   -0.47264   0.85711   0.20533   0.09624   -0.47264   0.85711   0.20533   89.16321
625   0.09622   -0.47279   0.85665   0.20670   0.09622   -0.47279   0.85665   0.20670   88.99841
626   0.09608   -0.47093   0.85791   0.20621   0.09608   -0.47093   0.85791   0.20621   89.06860
627   0.09598   -0.47176   0.85736   0.20627   0.09598   -0.47176   0.85736   0.20627   89.21814
628   0.09609   -0.47182   0.85708   0.20753   0.09609   -0.47182   0.85708   0.20753   89.09912
629   0.09619   -0.47166   0.85717   0.20750   0.09619   -0.47166   0.85717   0.20750   89.05334
630   0.09616   -0.47154   0.85723   0.20743   0.09616   -0.47154   0.85723   0.20743   89.05029
631   0.09613   -0.47032   0.85818   0.20649   0.09613   -0.47032   0.85818   0.20649   89.08386
632   0.09616   -0.47172   0.85726   0.20728   0.09616   -0.47172   0.85726   0.20728   89.11438
633   0.09624   -0.47176   0.85733   0.20603   0.09624   -0.47176   0.85733   0.20603   89.14185
634   0.09620   -0.47322   0.85699   0.20475   0.09620   -0.47322   0.85699   0.20475   89.14795
635   0.09619   -0.47395   0.85617   0.20606   0.09619   -0.47395   0.85617   0.20606   89.19373
636   0.09632   -0.47295   0.85687   0.20594   0.09632   -0.47295   0.85687   0.20594   89.20898
637   0.09617   -0.47349   0.85662   0.20551   0.09617   -0.47349   0.85662   0.20551   89.06860
638   0.09593   -0.47316   0.85675   0.20563   0.09593   -0.47316   0.85675   0.20563   89.15710
639   0.09600   -0.47288   0.85687   0.20585   0.09600   -0.47288   0.85687   0.20585   89.14490
640   0.09612   -0.47282   0.85699   0.20551   0.09612   -0.47282   0.85699   0.20551   89.20593
641   0.09612   -0.47246   0.85739   0.20481   0.09612   -0.47246   0.85739   0.20481   89.15710
642   0.09605   -0.47224   0.85760   0.20432   0.09605   -0.47224   0.85760   0.20432   89.22729
643   0.09606   -0.47319   0.85714   0.20389   0.09606   -0.47319   0.85714   0.20389   89.27612
644   0.09616   -0.47163   0.85794   0.20423   0.09616   -0.47163   0.85794   0.20423   89.25781
645   0.09621   -0.47096   0.85821   0.20463   0.09621   -0.47096   0.85821   0.20463   89.11133
646   0.09615   -0.47154   0.85772   0.20542   0.09615   -0.47154   0.85772   0.20542   89.23950
647   0.09620   -0.47249   0.85714   0.20542   0.09620   -0.47249   0.85714   0.20542   89.18762
648   0.09617   -0.47154   0.85781   0.20505   0.09617   -0.47154   0.85781   0.20505   89.25171
649   0.09616   -0.47343   0.85687   0.20441   0.09616   -0.47343   0.85687   0.20441   89.17236
650   0.09610   -0.47261   0.85730   0.20457   0.09610   -0.47261   0.85730   0.20457   89.27917
651   0.09611   -0.47401   0.85711   0.20219   0.09611   -0.47401   0.85711   0.20219   89.32800
652   0.09597   -0.47606   0.85635   0.20042   0.09597   -0.47606   0.85635   0.20042   89.43787
653   0.09604   -0.47407   0.85702   0.20264   0.09604   -0.47407   0.85702   0.20264   89.30969
654   0.09603   -0.47456   0.85650   0.20331   0.09603   -0.47456   0.85650   0.20331   89.27307
655   0.09606   -0.47465   0.85644   0.20383   0.09606   -0.47465   0.85644   0.20383   89.25781
656   0.09611   -0.47420   0.85665   0.20344   0.09611   -0.47420   0.85665   0.20344   89.15710
657   0.09609   -0.47377   0.85656   0.20505   0.09609   -0.47377   0.85656   0.20505   89.18457
658   0.09615   -0.47392   0.85617   0.20649   0.09615   -0.47392   0.85617   0.20649   89.08691
659   0.09616   -0.47444   0.85617   0.20554   0.09616   -0.47444   0.85617   0.20554   89.18152
660   0.09614   -0.47291   0.85678   0.20612   0.09614   -0.47291   0.85678   0.20612   89.18762
661   0.09610   -0.47401   0.85641   0.20521   0.09610   -0.47401   0.85641   0.20521   89.23340
662   0.09622   -0.47325   0.85714   0.20411   0.09622   -0.47325   0.85714   0.20411   89.20898
663   0.09614   -0.47578   0.85607   0.20255   0.09614   -0.47578   0.85607   0.20255   89.26697
664   0.09605   -0.47432   0.85687   0.20289   0.09605   -0.47432   0.85687   0.20289   89.30359
665   0.09595   -0.47298   0.85720   0.20423   0.09595   -0.47298   0.85720   0.20423   89.31274
666   0.09612   -0.47374   0.85678   0.20420   0.09612   -0.47374   0.85678   0.20420   89.25476
667   0.09611   -0.47389   0.85653   0.20490   0.09611   -0.47389   0.85653   0.20490   89.16626
668   0.09605   -0.47343   0.85723   0.20331   0.09605   -0.47343   0.85723   0.20331   89.28528
669   0.09610   -0.47331   0.85705   0.20420   0.09610   -0.47331   0.85705   0.20420   89.18457
670   0.09622   -0.47252   0.85733   0.20460   0.09622   -0.47252   0.85733   0.20460   89.21814
671   0.09617   -0.47481   0.85626   0.20331   0.09617   -0.47481   0.85626   0.20331   89.21204
672   0.09611   -0.47316   0.85723   0.20347   0.09611   -0.47316   0.85723   0.20347   89.32800
673   0.09617   -0.47279   0.85748   0.20331   0.09617   -0.47279   0.85748   0.20331   89.28833
674   0.09624   -0.47346   0.85723   0.20307   0.09624   -0.47346   0.85723   0.20307   89.25781
675   0.09621   -0.47371   0.85730   0.20212   0.09621   -0.47371   0.85730   0.20212   89.29138
676   0.09606   -0.47484   0.85681   0.20142   0.09606   -0.47484   0.85681   0.20142   89.48669
677   0.09607   -0.47395   0.85708   0.20234   0.09607   -0.47395   0.85708   0.20234   89.31580
678   0.09606   -0.47520   0.85650   0.20215   0.09606   -0.47520   0.85650   0.20215   89.29443
679   0.09611   -0.47182   0.85778   0.20417   0.09611   -0.47182   0.85778   0.20417   89.25171
680   0.09605   -0.47429   0.85653   0.20365   0.09605   -0.47429   0.85653   0.20365   89.29443
681   0.09617   -0.47221   0.85739   0.20518   0.09617   -0.47221   0.85739   0.20518   89.15405
682   0.09614   -0.47291   0.85696   0.20524   0.09614   -0.47291   0.85696   0.20524   89.19983
683   0.09610   -0.47398   0.85684   0.20353   0.09610   -0.47398   0.85684   0.20353   89.27917
684   0.09615   -0.47468   0.85592   0.20576   0.09615   -0.47468   0.85592   0.20576   89.16321
685   0.09620   -0.47444   0.85626   0.20487   0.09620   -0.47444   0.85626   0.20487   89.13879
686   0.09614   -0.47517   0.85629   0.20328   0.09614   -0.47517   0.85629   0.20328   89.26697
687   0.09617   -0.47389   0.85638   0.20557   0.09617   -0.47389   0.85638   0.20557   89.19373
688   0.09622   -0.47398   0.85638   0.20560   0.09622   -0.47398   0.85638   0.20560   89.18762
689   0.09615   -0.47459   0.85641   0.20380   0.09615   -0.47459   0.85641   0.20380   89.25781
690   0.09605   -0.47420   0.85635   0.20472   0.09605   -0.47420   0.85635   0.20472   89.16016
691   0.09605   -0.47398   0.85635   0.20560   0.09605   -0.47398   0.85635   0.20560   89.19067
692   0.09617   -0.47444   0.85592   0.20588   0.09617   -0.47444   0.85592   0.20588   89.10828
693   0.09609   -0.47530   0.85565   0.20548   0.09609   -0.47530   0.85565   0.20548   89.20288
694   0.09605   -0.47417   0.85626   0.20545   0.09605   -0.47417   0.85626   0.20545   89.23645
695   0.09616   -0.47359   0.85659   0.20533   0.09616   -0.47359   0.85659   0.20533   89.14490
696   0.09623   -0.47371   0.85665   0.20475   0.09623   -0.47371   0.85665   0.20475   89.16016
697   0.09614   -0.47359   0.85662   0.20563   0.09614   -0.47359   0.85662   0.20563   89.20898
698   0.09609   -0.47475   0.85629   0.20402   0.09609   -0.47475   0.85629   0.20402   89.28833
699   0.09614   -0.47481   0.85601   0.20511   0.09614   -0.47481   0.85601   0.20511   89.21814
700   0.09622   -0.47478   0.85601   0.20515   0.09622   -0.47478   0.85601   0.20515   89.16931
701   0.09622   -0.47423   0.85601   0.20634   0.09622   -0.47423   0.85601   0.20634   89.16931
702   0.09614   -0.47523   0.85583   0.20444   0.09614   -0.47523   0.85583   0.20444   89.28528
703   0.09610   -0.47407   0.85614   0.20624   0.09610   -0.47407   0.85614   0.20624   89.16626
704   0.09605   -0.47533   0.85562   0.20515   0.09605   -0.47533   0.85562   0.20515   89.16016
705   0.09601   -0.47420   0.85629   0.20560   0.09601   -0.47420   0.85629   0.20560   89.18457
706   0.09604   -0.47594   0.85553   0.20435   0.09604   -0.47594   0.85553   0.20435   89.22424
707   0.09610   -0.47456   0.85592   0.20560   0.09610   -0.47456   0.85592   0.20560   89.19373
708   0.09610   -0.47600   0.85565   0.20341   0.09610   -0.47600   0.85565   0.20341   89.20288
709   0.09605   -0.47566   0.85592   0.20374   0.09605   -0.47566   0.85592   0.20374   89.25476
710   0.09605   -0.47584   0.85571   0.20389   0.09605   -0.47584   0.85571   0.20389   89.34937
711   0.09618   -0.47563   0.85537   0.20569   0.09618   -0.47563   0.85537   0.20569   89.09912
712   0.09614   -0.47624   0.85562   0.20356   0.09614   -0.47624   0.85562   0.20356   89.18152
713   0.09611   -0.47670   0.85513   0.20402   0.09611   -0.47670   0.85513   0.20402   89.22424
714   0.09606   -0.47490   0.85614   0.20426   0.09606   -0.47490   0.85614   0.20426   89.29443
715   0.09608   -0.47636   0.85516   0.20466   0.09608   -0.47636   0.85516   0.20466   89.19373
716   0.09598   -0.47667   0.85507   0.20457   0.09598   -0.47667   0.85507   0.20457   89.12354
717   0.09598   -0.47581   0.85565   0.20414   0.09598   -0.47581   0.85565   0.20414   89.30359
718   0.09579   -0.47621   0.85540   0.20444   0.09579   -0.47621   0.85540   0.20444   89.17847
719   0.09589   -0.47667   0.85589   0.20154   0.09589   -0.47667   0.85589   0.20154   89.18152
720   0.09609   -0.47420   0.85623   0.20545   0.09609   -0.47420   0.85623   0.20545   89.16626
721   0.09612   -0.47630   0.85507   0.20521   0.09612   -0.47630   0.85507   0.20521   89.29138
722   0.09610   -0.47411   0.85586   0.20695   0.09610   -0.47411   0.85586   0.20695   89.14795
723   0.09603   -0.47508   0.85598   0.20441   0.09603   -0.47508   0.85598   0.20441   89.22424
724   0.09607   -0.47337   0.85623   0.20719   0.09607   -0.47337   0.85623   0.20719   89.11438
725   0.09612   -0.47465   0.85583   0.20594   0.09612   -0.47465   0.85583   0.20594   89.15710
726   0.09613   -0.47517   0.85565   0.20563   0.09613   -0.47517   0.85565   0.20563   89.15100
727   0.09606   -0.47542   0.85571   0.20481   0.09606   -0.47542   0.85571   0.20481   89.21814
728   0.09602   -0.47468   0.85617   0.20457   0.09602   -0.47468   0.85617   0.20457   89.23340
729   0.09599   -0.47481   0.85574   0.20576   0.09599   -0.47481   0.85574   0.20576   89.18152
730   0.09607   -0.47508   0.85598   0.20450   0.09607   -0.47508   0.85598   0.20450   89.23035
731   0.09603   -0.47353   0.85641   0.20594   0.09603   -0.47353   0.85641   0.20594   89.11133
732   0.09603   -0.47630   0.85516   0.20499   0.09603   -0.47630   0.85516   0.20499   89.23340
733   0.09614   -0.47362   0.85607   0.20728   0.09614   -0.47362   0.85607   0.20728   89.01978
734   0.09614   -0.47462   0.85556   0.20676   0.09614   -0.47462   0.85556   0.20676   88.98926
735   0.09611   -0.47462   0.85586   0.20566   0.09611   -0.47462   0.85586   0.20566   89.20593
736   0.09624   -0.47252   0.85638   0.20872   0.09624   -0.47252   0.85638   0.20872   89.08691
737   0.09627   -0.47429   0.85604   0.20582   0.09627   -0.47429   0.85604   0.20582   89.08081
738   0.09612   -0.47539   0.85492   0.20847   0.09612   -0.47539   0.85492   0.20847   89.02588
739   0.09609   -0.47584   0.85473   0.20771   0.09609   -0.47584   0.85473   0.20771   89.15405
740   0.09619   -0.47557   0.85498   0.20737   0.09619   -0.47557   0.85498   0.20737   89.07166
741   0.09618   -0.47545   0.85488   0.20801   0.09618   -0.47545   0.85488   0.20801   89.07166
742   0.09604   -0.47758   0.85388   0.20731   0.09604   -0.47758   0.85388   0.20731   89.03503
743   0.09598   -0.47777   0.85430   0.20533   0.09598   -0.47777   0.85430   0.20533   89.25781
744   0.09607   -0.47761   0.85391   0.20692   0.09607   -0.47761   0.85391   0.20692   89.08691
745   0.09607   -0.47945   0.85388   0.20338   0.09607   -0.47945   0.85388   0.20338   89.17236
746   0.09604   -0.47768   0.85430   0.20539   0.09604   -0.47768   0.85430   0.20539   89.12048
747   0.09604   -0.47932   0.85366   0.20426   0.09604   -0.47932   0.85366   0.20426   89.24561
748   0.09613   -0.47823   0.85424   0.20438   0.09613   -0.47823   0.85424   0.20438   89.16016
749   0.09612   -0.47755   0.85458   0.20447   0.09612   -0.47755   0.85458   0.20447   89.23340
750   0.09604   -0.47804   0.85434   0.20444   0.09604   -0.47804   0.85434   0.20444   89.24561
751   0.09607   -0.47960   0.85357   0.20417   0.09607   -0.47960   0.85357   0.20417   89.23950
752   0.09614   -0.47884   0.85363   0.20551   0.09614   -0.47884   0.85363   0.20551   89.03809
753   0.09607   -0.47954   0.85336   0.20496   0.09607   -0.47954   0.85336   0.20496   89.10522
754   0.09596   -0.47963   0.85308   0.20597   0.09596   -0.47963   0.85308   0.20597   89.10217
755   0.09593   -0.47920   0.85311   0.20670   0.09593   -0.47920   0.85311   0.20670   89.12659
756   0.09606   -0.47954   0.85351   0.20463   0.09606   -0.47954   0.85351   0.20463   89.06555
757   0.09601   -0.48051   0.85287   0.20447   0.09601   -0.48051   0.85287   0.20447   89.17542
758   0.09599   -0.48067   0.85247   0.20618   0.09599   -0.48067   0.85247   0.20618   89.08691
759   0.09603   -0.48094   0.85235   0.20606   0.09603   -0.48094   0.85235   0.20606   89.13879
760   0.09607   -0.48027   0.85281   0.20551   0.09607   -0.48027   0.85281   0.20551   89.07776
761   0.09601   -0.48024   0.85290   0.20557   0.09601   -0.48024   0.85290   0.20557   89.09912
762   0.09608   -0.48106   0.85284   0.20347   0.09608   -0.48106   0.85284   0.20347   89.13574
763   0.09609   -0.47914   0.85333   0.20618   0.09609   -0.47914   0.85333   0.20618   89.08997
764   0.09607   -0.48003   0.85275   0.20664   0.09607   -0.48003   0.85275   0.20664   89.08691
765   0.09601   -0.48033   0.85257   0.20634   0.09601   -0.48033   0.85257   0.20634   89.11743
766   0.09601   -0.47942   0.85293   0.20698   0.09601   -0.47942   0.85293   0.20698   89.15405
767   0.09593   -0.48048   0.85272   0.20606   0.09593   -0.48048   0.85272   0.20606   89.08997
768   0.09593   -0.47972   0.85311   0.20536   0.09593   -0.47972   0.85311   0.20536   89.10828
769   0.09596   -0.47969   0.85293   0.20637   0.09596   -0.47969   0.85293   0.20637   89.06555
770   0.09604   -0.47935   0.85321   0.20600   0.09604   -0.47935   0.85321   0.20600   89.14795
771   0.09605   -0.48009   0.85269   0.20661   0.09605   -0.48009   0.85269   0.20661   89.03809
772   0.09601   -0.48057   0.85263   0.20551   0.09601   -0.48057   0.85263   0.20551   89.10828
773   0.09603   -0.48024   0.85263   0.20631   0.09603   -0.48024   0.85263   0.20631   89.12048
774   0.09609   -0.48064   0.85232   0.20658   0.09609   -0.48064   0.85232   0.20658   89.05945
775   0.09610   -0.48054   0.85263   0.20573   0.09610   -0.48054   0.85263   0.20573   89.09912
776   0.09598   -0.48167   0.85186   0.20649   0.09598   -0.48167   0.85186   0.20649   89.05640
777   0.09609   -0.48003   0.85241   0.20780   0.09609   -0.48003   0.85241   0.20780   89.03198
778   0.09611   -0.48125   0.85220   0.20554   0.09611   -0.48125   0.85220   0.20554   89.12048
779   0.09604   -0.48079   0.85232   0.20640   0.09604   -0.48079   0.85232   0.20640   88.99536
780   0.09588   -0.48183   0.85208   0.20505   0.09588   -0.48183   0.85208   0.20505   89.10217
781   0.09598   -0.48164   0.85180   0.20667   0.09598   -0.48164   0.85180   0.20667   89.03809
782   0.09601   -0.48134   0.85217   0.20597   0.09601   -0.48134   0.85217   0.20597   89.08997
783   0.09600   -0.48152   0.85171   0.20719   0.09600   -0.48152   0.85171   0.20719   88.99231
784   0.09596   -0.48103   0.85241   0.20545   0.09596   -0.48103   0.85241   0.20545   89.09302
785   0.09605   -0.48146   0.85183   0.20688   0.09605   -0.48146   0.85183   0.20688   89.02588
786   0.09609   -0.48289   0.85107   0.20661   0.09609   -0.48289   0.85107   0.20661   89.02283
787   0.09601   -0.48112   0.85241   0.20573   0.09601   -0.48112   0.85241   0.20573   89.15405
788   0.09604   -0.48125   0.85153   0.20869   0.09604   -0.48125   0.85153   0.20869   88.95874
789   0.09608   -0.48131   0.85192   0.20658   0.09608   -0.48131   0.85192   0.20658   89.07776
790   0.09609   -0.48137   0.85202   0.20646   0.09609   -0.48137   0.85202   0.20646   89.05945
791   0.09600   -0.48235   0.85147   0.20615   0.09600   -0.48235   0.85147   0.20615   89.09607
792   0.09597   -0.48317   0.85107   0.20600   0.09597   -0.48317   0.85107   0.20600   89.11438
793   0.09593   -0.48119   0.85186   0.20743   0.09593   -0.48119   0.85186   0.20743   89.02283
794   0.09597   -0.48164   0.85189   0.20631   0.09597   -0.48164   0.85189   0.20631   89.05640
795   0.09593   -0.48219   0.85137   0.20695   0.09593   -0.48219   0.85137   0.20695   88.98621
796   0.09601   -0.48201   0.85137   0.20719   0.09601   -0.48201   0.85137   0.20719   89.02283
797   0.09605   -0.48003   0.85266   0.20707   0.09605   -0.48003   0.85266   0.20707   89.03503
798   0.09605   -0.48305   0.85119   0.20591   0.09605   -0.48305   0.85119   0.20591   88.95874
799   0.09599   -0.48183   0.85156   0.20682   0.09599   -0.48183   0.85156   0.20682   89.09607
800   0.09590   -0.48292   0.85095   0.20750   0.09590   -0.48292   0.85095   0.20750   89.10522
801   0.09589   -0.48149   0.85162   0.20792   0.09589   -0.48149   0.85162   0.20792   88.89465
802   0.09598   -0.48366   0.85070   0.20640   0.09598   -0.48366   0.85070   0.20640   88.94348
803   0.09609   -0.48338   0.85070   0.20737   0.09609   -0.48338   0.85070   0.20737   89.04114
804   0.09612   -0.48259   0.85076   0.20875   0.09612   -0.48259   0.85076   0.20875   88.91907
805   0.09599   -0.48335   0.85089   0.20621   0.09599   -0.48335   0.85089   0.20621   89.01978
806   0.09588   -0.48308   0.85119   0.20542   0.09588   -0.48308   0.85119   0.20542   89.05640
807   0.09601   -0.48390   0.85104   0.20469   0.09601   -0.48390   0.85104   0.20469   89.13574
808   0.09604   -0.48527   0.85049   0.20341   0.09604   -0.48527   0.85049   0.20341   89.12964
809   0.09600   -0.48512   0.85055   0.20371   0.09600   -0.48512   0.85055   0.20371   89.10522
810   0.09598   -0.48524   0.85055   0.20328   0.09598   -0.48524   0.85055   0.20328   89.14185
811   0.09611   -0.48656   0.84954   0.20417   0.09611   -0.48656   0.84954   0.20417   89.05334
812   0.09608   -0.48445   0.85003   0.20695   0.09608   -0.48445   0.85003   0.20695   88.94348
813   0.09600   -0.48570   0.84964   0.20612   0.09600   -0.48570   0.84964   0.20612   89.01062
814   0.09603   -0.48283   0.85043   0.20930   0.09603   -0.48283   0.85043   0.20930   88.95874
815   0.09610   -0.48393   0.84957   0.21027   0.09610   -0.48393   0.84957   0.21027   88.89771
816   0.09605   -0.48207   0.85034   0.21171   0.09605   -0.48207   0.85034   0.21171   88.90381
817   0.09599   -0.48381   0.84970   0.20988   0.09599   -0.48381   0.84970   0.20988   88.83057
818   0.09608   -0.48387   0.85018   0.20762   0.09608   -0.48387   0.85018   0.20762   88.96484
819   0.09614   -0.48387   0.85006   0.20872   0.09614   -0.48387   0.85006   0.20872   88.93433
820   0.09589   -0.48412   0.84970   0.20905   0.09589   -0.48412   0.84970   0.20905   88.98010
821   0.09574   -0.48518   0.84979   0.20679   0.09574   -0.48518   0.84979   0.20679   89.00146
822   0.09603   -0.48463   0.84988   0.20731   0.09603   -0.48463   0.84988   0.20731   88.95874
823   0.09620   -0.48369   0.85000   0.20914   0.09620   -0.48369   0.85000   0.20914   88.90991
824   0.09615   -0.48463   0.84960   0.20856   0.09615   -0.48463   0.84960   0.20856   88.84888
825   0.09600   -0.48469   0.84942   0.20927   0.09600   -0.48469   0.84942   0.20927   88.91602
826   0.09604   -0.48387   0.85000   0.20866   0.09604   -0.48387   0.85000   0.20866   88.90991
827   0.09609   -0.48387   0.84970   0.21015   0.09609   -0.48387   0.84970   0.21015   88.76343
828   0.09610   -0.48384   0.84991   0.20899   0.09610   -0.48384   0.84991   0.20899   88.90991
829   0.09603   -0.48393   0.84973   0.20985   0.09603   -0.48393   0.84973   0.20985   88.96790
830   0.09607   -0.48375   0.85015   0.20850   0.09607   -0.48375   0.85015   0.20850   88.83972
831   0.09596   -0.48518   0.84930   0.20856   0.09596   -0.48518   0.84930   0.20856   88.79700
832   0.09590   -0.48466   0.84973   0.20820   0.09590   -0.48466   0.84973   0.20820   88.96179
833   0.09597   -0.48476   0.84979   0.20771   0.09597   -0.48476   0.84979   0.20771   88.92212
834   0.09600   -0.48466   0.84948   0.20939   0.09600   -0.48466   0.84948   0.20939   88.84888
835   0.09611   -0.48415   0.84945   0.21009   0.09611   -0.48415   0.84945   0.21009   88.88245
836   0.09613   -0.48488   0.84915   0.20985   0.09613   -0.48488   0.84915   0.20985   88.84583
837   0.09592   -0.48320   0.84994   0.21073   0.09592   -0.48320   0.84994   0.21073   88.82141
838   0.09588   -0.48430   0.84967   0.20899   0.09588   -0.48430   0.84967   0.20899   88.83667
839   0.09609   -0.48424   0.84997   0.20823   0.09609   -0.48424   0.84997   0.20823   88.87939
840   0.09604   -0.48503   0.84912   0.20945   0.09604   -0.48503   0.84912   0.20945   88.94043
841   0.09603   -0.48341   0.84960   0.21119   0.09603   -0.48341   0.84960   0.21119   88.85193
842   0.09596   -0.48369   0.84985   0.20994   0.09596   -0.48369   0.84985   0.20994   88.78784
843   0.09592   -0.48350   0.84973   0.21082   0.09592   -0.48350   0.84973   0.21082   88.83972
844   0.09587   -0.48433   0.84951   0.20963   0.09587   -0.48433   0.84951   0.20963   88.89160
845   0.09599   -0.48399   0.84973   0.20951   0.09599   -0.48399   0.84973   0.20951   88.83057
846   0.09593   -0.48579   0.84918   0.20753   0.09593   -0.48579   0.84918   0.20753   88.88855
847   0.09592   -0.48424   0.84951   0.21012   0.09592   -0.48424   0.84951   0.21012   88.87634
848   0.09602   -0.48469   0.84960   0.20835   0.09602   -0.48469   0.84960   0.20835   88.89771
849   0.09605   -0.48421   0.84976   0.20856   0.09605   -0.48421   0.84976   0.20856   88.88245
850   0.09601   -0.48433   0.84979   0.20850   0.09601   -0.48433   0.84979   0.20850   88.90686
851   0.09598   -0.48445   0.84960   0.20936   0.09598   -0.48445   0.84960   0.20936   88.88550
852   0.09604   -0.48369   0.84979   0.21006   0.09604   -0.48369   0.84979   0.21006   88.90991
853   0.09610   -0.48350   0.84997   0.20985   0.09610   -0.48350   0.84997   0.20985   88.81226
854   0.09605   -0.48329   0.84976   0.21097   0.09605   -0.48329   0.84976   0.21097   88.86414
855   0.09606   -0.48390   0.84948   0.21116   0.09606   -0.48390   0.84948   0.21116   88.73291
856   0.09605   -0.48213   0.85034   0.21174   0.09605   -0.48213   0.85034   0.21174   88.78784
857   0.09592   -0.48387   0.84970   0.20997   0.09592   -0.48387   0.84970   0.20997   88.76343
858   0.09592   -0.48381   0.84964   0.21055   0.09592   -0.48381   0.84964   0.21055   88.83057
859   0.09596   -0.48274   0.85003   0.21110   0.09596   -0.48274   0.85003   0.21110   88.85498
860   0.09605   -0.48241   0.85046   0.21039   0.09605   -0.48241   0.85046   0.21039   88.88245
861   0.09606   -0.48326   0.85025   0.20939   0.09606   -0.48326   0.85025   0.20939   88.79089
862   0.09597   -0.48347   0.84997   0.21018   0.09597   -0.48347   0.84997   0.21018   88.83667
863   0.09602   -0.48253   0.85015   0.21158   0.09602   -0.48253   0.85015   0.21158   88.83362
864   0.09611   -0.48387   0.84979   0.20991   0.09611   -0.48387   0.84979   0.20991   88.85193
865   0.09609   -0.48323   0.84979   0.21104   0.09609   -0.48323   0.84979   0.21104   88.80310
866   0.09605   -0.48463   0.84939   0.20963   0.09605   -0.48463   0.84939   0.20963   88.79700
867   0.09610   -0.48378   0.84921   0.21201   0.09610   -0.48378   0.84921   0.21201   88.81226
868   0.09610   -0.48357   0.84967   0.21064   0.09610   -0.48357   0.84967   0.21064   88.75732
869   0.09602   -0.48381   0.84979   0.20963   0.09602   -0.48381   0.84979   0.20963   88.83362
870   0.09593   -0.48204   0.85064   0.21033   0.09593   -0.48204   0.85064   0.21033   88.92822
871   0.09605   -0.48222   0.85009   0.21244   0.09605   -0.48222   0.85009   0.21244   88.83667
872   0.09603   -0.48253   0.85015   0.21134   0.09603   -0.48253   0.85015   0.21134   88.73901
873   0.09602   -0.48128   0.85046   0.21305   0.09602   -0.48128   0.85046   0.21305   88.83362
874   0.09603   -0.48198   0.85034   0.21168   0.09603   -0.48198   0.85034   0.21168   88.89160
875   0.09614   -0.48106   0.85086   0.21201   0.09614   -0.48106   0.85086   0.21201   88.78784
876   0.09609   -0.48271   0.84979   0.21223   0.09609   -0.48271   0.84979   0.21223   88.76343
877   0.09607   -0.48292   0.84979   0.21162   0.09607   -0.48292   0.84979   0.21162   88.79089
878   0.09611   -0.48271   0.85031   0.21036   0.09611   -0.48271   0.85031   0.21036   88.85193
879   0.09612   -0.48170   0.85046   0.21189   0.09612   -0.48170   0.85046   0.21189   88.83362
880   0.09606   -0.48289   0.85000   0.21067   0.09606   -0.48289   0.85000   0.21067   88.88550
881   0.09603   -0.48317   0.84976   0.21119   0.09603   -0.48317   0.84976   0.21119   88.81531
882   0.09604   -0.48228   0.85015   0.21177   0.09604   -0.48228   0.85015   0.21177   88.82446
883   0.09597   -0.48341   0.84979   0.21064   0.09597   -0.48341   0.84979   0.21064   88.80920
884   0.09601   -0.48250   0.85006   0.21152   0.09601   -0.48250   0.85006   0.21152   88.81226
885   0.09600   -0.48347   0.84957   0.21128   0.09600   -0.48347   0.84957   0.21128   88.80005
886   0.09605   -0.48387   0.84970   0.20991   0.09605   -0.48387   0.84970   0.20991   88.82751
887   0.09602   -0.48338   0.84954   0.21146   0.09602   -0.48338   0.84954   0.21146   88.77563
888   0.09602   -0.48387   0.84982   0.20948   0.09602   -0.48387   0.84982   0.20948   88.86108
889   0.09608   -0.48283   0.85022   0.21058   0.09608   -0.48283   0.85022   0.21058   88.86719
890   0.09613   -0.48302   0.85015   0.21049   0.09613   -0.48302   0.85015   0.21049   88.81531
891   0.09604   -0.48235   0.85052   0.21027   0.09604   -0.48235   0.85052   0.21027   88.85498
892   0.09601   -0.48320   0.84973   0.21143   0.09601   -0.48320   0.84973   0.21143   88.90686
893   0.09611   -0.48265   0.85025   0.21030   0.09611   -0.48265   0.85025   0.21030   88.85193
894   0.09605   -0.48299   0.85028   0.20960   0.09605   -0.48299   0.85028   0.20960   88.87329
895   0.09593   -0.48241   0.85055   0.21039   0.09593   -0.48241   0.85055   0.21039   88.83362
896   0.09594   -0.48192   0.85067   0.21064   0.09594   -0.48192   0.85067   0.21064   88.84277
897   0.09604   -0.48375   0.84951   0.21104   0.09604   -0.48375   0.84951   0.21104   88.79700
898   0.09603   -0.48323   0.84994   0.21052   0.09603   -0.48323   0.84994   0.21052   88.79395
899   0.09595   -0.48372   0.84991   0.20951   0.09595   -0.48372   0.84991   0.20951   88.86414
900   0.09602   -0.48305   0.85031   0.20923   0.09602   -0.48305   0.85031   0.20923   88.95569
901   0.09617   -0.48216   0.85061   0.21003   0.09617   -0.48216   0.85061   0.21003   88.83972
902   0.09616   -0.48268   0.85034   0.21012   0.09616   -0.48268   0.85034   0.21012   88.83972
903   0.09607   -0.48271   0.85055   0.20951   0.09607   -0.48271   0.85055   0.20951   88.96179
904   0.09607   -0.48408   0.84957   0.20988   0.09607   -0.48408   0.84957   0.20988   88.81836
905   0.09613   -0.48354   0.85018   0.20829   0.09613   -0.48354   0.85018   0.20829   88.86414
906   0.09606   -0.48292   0.85009   0.21039   0.09606   -0.48292   0.85009   0.21039   88.87634
907   0.09602   -0.48274   0.85043   0.20939   0.09602   -0.48274   0.85043   0.20939   88.90991
908   0.09598   -0.48247   0.85076   0.20899   0.09598   -0.48247   0.85076   0.20899   88.86719
909   0.09599   -0.48225   0.85083   0.20869   0.09599   -0.48225   0.85083   0.20869   88.86719
910   0.09595   -0.48192   0.85089   0.20954   0.09595   -0.48192   0.85089   0.20954   88.91907
911   0.09595   -0.48222   0.85086   0.20908   0.09595   -0.48222   0.85086   0.20908   89.02588
912   0.09602   -0.48177   0.85113   0.20942   0.09602   -0.48177   0.85113   0.20942   88.97400
913   0.09603   -0.48115   0.85159   0.20820   0.09603   -0.48115   0.85159   0.20820   88.96790
914   0.09604   -0.48186   0.85153   0.20722   0.09604   -0.48186   0.85153   0.20722   89.03503
915   0.09614   -0.48097   0.85144   0.20951   0.09614   -0.48097   0.85144   0.20951   88.85498
916   0.09616   -0.48146   0.85147   0.20820   0.09616   -0.48146   0.85147   0.20820   88.88855
917   0.09603   -0.48085   0.85174   0.20878   0.09603   -0.48085   0.85174   0.20878   88.95874
918   0.09580   -0.48018   0.85199   0.20942   0.09580   -0.48018   0.85199   0.20942   88.98010
919   0.09584   -0.48021   0.85192   0.20923   0.09584   -0.48021   0.85192   0.20923   88.97400
920   0.09606   -0.48042   0.85195   0.20905   0.09606   -0.48042   0.85195   0.20905   88.91296
921   0.09598   -0.47981   0.85223   0.20872   0.09598   -0.47981   0.85223   0.20872   89.01062
922   0.09596   -0.48109   0.85174   0.20829   0.09596   -0.48109   0.85174   0.20829   88.96790
923   0.09593   -0.47954   0.85192   0.21061   0.09593   -0.47954   0.85192   0.21061   88.87939
924   0.09593   -0.47938   0.85247   0.20862   0.09593   -0.47938   0.85247   0.20862   88.99536
925   0.09593   -0.47984   0.85232   0.20838   0.09593   -0.47984   0.85232   0.20838   89.07166
926   0.09606   -0.47877   0.85257   0.21009   0.09606   -0.47877   0.85257   0.21009   88.91296
927   0.09612   -0.48033   0.85214   0.20811   0.09612   -0.48033   0.85214   0.20811   88.82446
928   0.09602   -0.48003   0.85272   0.20673   0.09602   -0.48003   0.85272   0.20673   88.93738
929   0.09600   -0.47823   0.85302   0.20948   0.09600   -0.47823   0.85302   0.20948   89.01978
930   0.09610   -0.48003   0.85205   0.20884   0.09610   -0.48003   0.85205   0.20884   88.98621
931   0.09614   -0.47841   0.85324   0.20829   0.09614   -0.47841   0.85324   0.20829   88.96179
932   0.09603   -0.47908   0.85281   0.20856   0.09603   -0.47908   0.85281   0.20856   88.98621
933   0.09593   -0.47856   0.85314   0.20850   0.09593   -0.47856   0.85314   0.20850   89.11743
934   0.09601   -0.47765   0.85318   0.20985   0.09601   -0.47765   0.85318   0.20985   88.91602
935   0.09612   -0.47777   0.85357   0.20829   0.09612   -0.47777   0.85357   0.20829   88.95874
936   0.09605   -0.47902   0.85314   0.20734   0.09605   -0.47902   0.85314   0.20734   89.08386
937   0.09604   -0.47874   0.85296   0.20826   0.09604   -0.47874   0.85296   0.20826   89.06250
938   0.09609   -0.47966   0.85272   0.20750   0.09609   -0.47966   0.85272   0.20750   88.99231
939   0.09610   -0.48015   0.85281   0.20603   0.09610   -0.48015   0.85281   0.20603   89.11743
940   0.09614   -0.47810   0.85360   0.20731   0.09614   -0.47810   0.85360   0.20731   89.03809
941   0.09619   -0.47859   0.85339   0.20719   0.09619   -0.47859   0.85339   0.20719   89.12048
942   0.09622   -0.47777   0.85354   0.20795   0.09622   -0.47777   0.85354   0.20795   89.05640
943   0.09612   -0.47957   0.85284   0.20701   0.09612   -0.47957   0.85284   0.20701   89.13879
944   0.09610   -0.47716   0.85427   0.20685   0.09610   -0.47716   0.85427   0.20685   89.13574
945   0.09610   -0.47786   0.85376   0.20707   0.09610   -0.47786   0.85376   0.20707   89.08081
946   0.09605   -0.47719   0.85394   0.20808   0.09605   -0.47719   0.85394   0.20808   89.08386
947   0.09601   -0.47676   0.85461   0.20643   0.09601   -0.47676   0.85461   0.20643   89.10828
948   0.09603   -0.47673   0.85476   0.20588   0.09603   -0.47673   0.85476   0.20588   89.11133
949   0.09606   -0.47743   0.85412   0.20688   0.09606   -0.47743   0.85412   0.20688   89.10522
950   0.09608   -0.47642   0.85473   0.20667   0.09608   -0.47642   0.85473   0.20667   89.05945
951   0.09607   -0.47691   0.85464   0.20576   0.09607   -0.47691   0.85464   0.20576   89.11438
952   0.09612   -0.47633   0.85455   0.20734   0.09612   -0.47633   0.85455   0.20734   89.08081
953   0.09613   -0.47722   0.85430   0.20679   0.09613   -0.47722   0.85430   0.20679   89.11133
954   0.09610   -0.47713   0.85434   0.20676   0.09610   -0.47713   0.85434   0.20676   89.09912
955   0.09608   -0.47658   0.85446   0.20740   0.09608   -0.47658   0.85446   0.20740   89.09607
956   0.09614   -0.47523   0.85543   0.20649   0.09614   -0.47523   0.85543   0.20649   89.22729
957   0.09617   -0.47511   0.85556   0.20661   0.09617   -0.47511   0.85556   0.20661   88.99231
958   0.09607   -0.47636   0.85467   0.20676   0.09607   -0.47636   0.85467   0.20676   89.08691
959   0.09597   -0.47700   0.85467   0.20511   0.09597   -0.47700   0.85467   0.20511   89.19983
960   0.09607   -0.47627   0.85525   0.20487   0.09607   -0.47627   0.85525   0.20487   89.05640
961   0.09605   -0.47707   0.85492   0.20423   0.09605   -0.47707   0.85492   0.20423   89.19678
962   0.09600   -0.47746   0.85430   0.20585   0.09600   -0.47746   0.85430   0.20585   89.16321
963   0.09608   -0.47633   0.85470   0.20670   0.09608   -0.47633   0.85470   0.20670   89.05029
964   0.09610   -0.47813   0.85391   0.20582   0.09610   -0.47813   0.85391   0.20582   89.12659
965   0.09606   -0.47652   0.85525   0.20429   0.09606   -0.47652   0.85525   0.20429   89.21814
966   0.09605   -0.47783   0.85452   0.20383   0.09605   -0.47783   0.85452   0.20383   89.22729
967   0.09614   -0.47536   0.85583   0.20423   0.09614   -0.47536   0.85583   0.20423   89.23645
968   0.09623   -0.47392   0.85583   0.20746   0.09623   -0.47392   0.85583   0.20746   88.93433
969   0.09614   -0.47530   0.85537   0.20643   0.09614   -0.47530   0.85537   0.20643   89.12354
970   0.09607   -0.47505   0.85556   0.20627   0.09607   -0.47505   0.85556   0.20627   89.17236
971   0.09607   -0.47603   0.85537   0.20530   0.09607   -0.47603   0.85537   0.20530   89.15405
972   0.09605   -0.47517   0.85553   0.20637   0.09605   -0.47517   0.85553   0.20637   89.01672
973   0.09601   -0.47493   0.85577   0.20600   0.09601   -0.47493   0.85577   0.20600   89.15405
974   0.09605   -0.47392   0.85604   0.20704   0.09605   -0.47392   0.85604   0.20704   89.01672
975   0.09609   -0.47426   0.85620   0.20560   0.09609   -0.47426   0.85620   0.20560   89.15405
976   0.09614   -0.47417   0.85583   0.20716   0.09614   -0.47417   0.85583   0.20716   89.03809
977   0.09605   -0.47566   0.85528   0.20594   0.09605   -0.47566   0.85528   0.20594   89.11133
978   0.09612   -0.47313   0.85647   0.20707   0.09612   -0.47313   0.85647   0.20707   89.14795
979   0.09618   -0.47389   0.85620   0.20637   0.09618   -0.47389   0.85620   0.20637   89.08081
980   0.09620   -0.47478   0.85559   0.20658   0.09620   -0.47478   0.85559   0.20658   89.07166
981   0.09610   -0.47569   0.85546   0.20527   0.09610   -0.47569   0.85546   0.20527   89.12659
982   0.09611   -0.47560   0.85540   0.20573   0.09611   -0.47560   0.85540   0.20573   89.22424
983   0.09614   -0.47475   0.85574   0.20612   0.09614   -0.47475   0.85574   0.20612   89.11438
984   0.09609   -0.47432   0.85598   0.20609   0.09609   -0.47432   0.85598   0.20609   89.15405
985   0.09595   -0.47337   0.85635   0.20676   0.09595   -0.47337   0.85635   0.20676   89.20593
986   0.09607   -0.47420   0.85592   0.20670   0.09607   -0.47420   0.85592   0.20670   89.13269
987   0.09606   -0.47291   0.85678   0.20603   0.09606   -0.47291   0.85678   0.20603   89.19067
988   0.09609   -0.47377   0.85632   0.20579   0.09609   -0.47377   0.85632   0.20579   89.12659
989   0.09605   -0.47499   0.85586   0.20539   0.09605   -0.47499   0.85586   0.20539   89.17847
990   0.09612   -0.47481   0.85589   0.20548   0.09612   -0.47481   0.85589   0.20548   89.21509
991   0.09610   -0.47475   0.85614   0.20502   0.09610   -0.47475   0.85614   0.20502   89.14795
992   0.09611   -0.47395   0.85626   0.20594   0.09611   -0.47395   0.85626   0.20594   89.21509
993   0.09616   -0.47453   0.85586   0.20615   0.09616   -0.47453   0.85586   0.20615   89.08691
994   0.09614   -0.47533   0.85562   0.20588   0.09614   -0.47533   0.85562   0.20588   89.12354
995   0.09615   -0.47227   0.85699   0.20664   0.09615   -0.47227   0.85699   0.20664   89.12354
996   0.09609   -0.47420   0.85604   0.20655   0.09609   -0.47420   0.85604   0.20655   89.09912
997   0.09613   -0.47322   0.85659   0.20621   0.09613   -0.47322   0.85659   0.20621   89.13879
998   0.09607   -0.47276   0.85696   0.20542   0.09607   -0.47276   0.85696   0.20542   89.13269
999   0.09608   -0.47203   0.85742   0.20606   0.09608   -0.47203   0.85742   0.20606   89.15405
1000   0.09596   -0.47249   0.85739   0.20463   0.09596   -0.47249   0.85739   0.20463   89.24561
1001   0.09590   -0.47288   0.85662   0.20710   0.09590   -0.47288   0.85662   0.20710   89.09607
1002   0.09604   -0.47313   0.85669   0.20594   0.09604   -0.47313   0.85669   0.20594   89.17847
1003   0.09616   -0.47304   0.85693   0.20499   0.09616   -0.47304   0.85693   0.20499   89.19067
1004   0.09623   -0.47261   0.85705   0.20591   0.09623   -0.47261   0.85705   0.20591   89.14185
1005   0.09623   -0.47212   0.85757   0.20505   0.09623   -0.47212   0.85757   0.20505   89.16931
1006   0.09612   -0.47386   0.85641   0.20508   0.09612   -0.47386   0.85641   0.20508   89.19678
1007   0.09616   -0.47285   0.85672   0.20679   0.09616   -0.47285   0.85672   0.20679   89.18152
1008   0.09625   -0.47285   0.85708   0.20508   0.09625   -0.47285   0.85708   0.20508   89.21204
1009   0.09620   -0.47536   0.85577   0.20511   0.09620   -0.47536   0.85577   0.20511   89.15710
1010   0.09605   -0.47462   0.85665   0.20267   0.09605   -0.47462   0.85665   0.20267   89.33105
1011   0.09605   -0.47237   0.85653   0.20838   0.09605   -0.47237   0.85653   0.20838   89.07471
1012   0.09620   -0.47145   0.85714   0.20765   0.09620   -0.47145   0.85714   0.20765   89.11133
1013   0.09613   -0.47282   0.85678   0.20643   0.09613   -0.47282   0.85678   0.20643   89.09302
1014   0.09609   -0.47334   0.85678   0.20545   0.09609   -0.47334   0.85678   0.20545   89.21204
1015   0.09610   -0.47276   0.85708   0.20566   0.09610   -0.47276   0.85708   0.20566   89.19373
1016   0.09618   -0.47404   0.85659   0.20472   0.09618   -0.47404   0.85659   0.20472   89.13574
1017   0.09622   -0.47237   0.85723   0.20579   0.09622   -0.47237   0.85723   0.20579   89.04724
1018   0.09626   -0.47200   0.85708   0.20688   0.09626   -0.47200   0.85708   0.20688   89.18457
1019   0.09636   -0.47258   0.85675   0.20649   0.09636   -0.47258   0.85675   0.20649   89.13879
1020   0.09617   -0.47337   0.85672   0.20551   0.09617   -0.47337   0.85672   0.20551   89.12659
1021   0.09605   -0.47212   0.85742   0.20521   0.09605   -0.47212   0.85742   0.20521   89.16016
1022   0.09611   -0.47298   0.85662   0.20664   0.09611   -0.47298   0.85662   0.20664   89.15710
1023   0.09618   -0.47206   0.85726   0.20588   0.09618   -0.47206   0.85726   0.20588   89.27002
1024   0.09615   -0.47349   0.85705   0.20414   0.09615   -0.47349   0.85705   0.20414   89.24866
1025   0.09613   -0.47273   0.85705   0.20530   0.09613   -0.47273   0.85705   0.20530   89.17847
1026   0.09605   -0.47243   0.85739   0.20469   0.09605   -0.47243   0.85739   0.20469   89.25476
1027   0.09612   -0.47295   0.85705   0.20484   0.09612   -0.47295   0.85705   0.20484   89.19678
1028   0.09614   -0.47520   0.85629   0.20331   0.09614   -0.47520   0.85629   0.20331   89.18762
1029   0.09614   -0.47362   0.85714   0.20258   0.09614   -0.47362   0.85714   0.20258   89.37073
1030   0.09615   -0.47468   0.85708   0.20127   0.09615   -0.47468   0.85708   0.20127   89.40125
1031   0.09619   -0.47478   0.85623   0.20423   0.09619   -0.47478   0.85623   0.20423   89.21509
1032   0.09614   -0.47444   0.85672   0.20301   0.09614   -0.47444   0.85672   0.20301   89.19983
1033   0.09615   -0.47288   0.85742   0.20380   0.09615   -0.47288   0.85742   0.20380   89.34326
1034   0.09624   -0.47298   0.85717   0.20426   0.09624   -0.47298   0.85717   0.20426   89.20898
1035   0.09624   -0.47429   0.85690   0.20246   0.09624   -0.47429   0.85690   0.20246   89.28528
1036   0.09618   -0.47124   0.85821   0.20386   0.09618   -0.47124   0.85821   0.20386   89.27002
1037   0.09603   -0.47218   0.85751   0.20438   0.09603   -0.47218   0.85751   0.20438   89.31885
1038   0.09596   -0.47273   0.85723   0.20438   0.09596   -0.47273   0.85723   0.20438   89.19678
1039   0.09610   -0.47206   0.85797   0.20292   0.09610   -0.47206   0.85797   0.20292   89.25171
1040   0.09612   -0.47343   0.85730   0.20249   0.09612   -0.47343   0.85730   0.20249   89.29138
1041   0.09615   -0.47056   0.85858   0.20365   0.09615   -0.47056   0.85858   0.20365   89.33411
1042   0.09617   -0.47148   0.85830   0.20307   0.09617   -0.47148   0.85830   0.20307   89.28833
1043   0.09616   -0.47108   0.85812   0.20484   0.09616   -0.47108   0.85812   0.20484   89.14490
1044   0.09614   -0.47154   0.85775   0.20551   0.09614   -0.47154   0.85775   0.20551   89.24561
1045   0.09623   -0.47063   0.85818   0.20548   0.09623   -0.47063   0.85818   0.20548   89.26697
1046   0.09630   -0.46983   0.85861   0.20603   0.09630   -0.46983   0.85861   0.20603   89.09302
1047   0.09619   -0.47160   0.85839   0.20228   0.09619   -0.47160   0.85839   0.20228   89.28223
1048   0.09609   -0.47215   0.85757   0.20457   0.09609   -0.47215   0.85757   0.20457   89.22119
1049   0.09605   -0.47386   0.85681   0.20392   0.09605   -0.47386   0.85681   0.20392   89.23645
1050   0.09614   -0.47319   0.85742   0.20270   0.09614   -0.47319   0.85742   0.20270   89.28528
1051   0.09603   -0.47475   0.85650   0.20295   0.09603   -0.47475   0.85650   0.20295   89.34937
1052   0.09607   -0.47508   0.85656   0.20161   0.09607   -0.47508   0.85656   0.20161   89.35242
1053   0.09613   -0.47456   0.85696   0.20142   0.09613   -0.47456   0.85696   0.20142   89.40735
1054   0.09615   -0.47468   0.85696   0.20142   0.09615   -0.47468   0.85696   0.20142   89.30664
1055   0.09609   -0.47673   0.85580   0.20109   0.09609   -0.47673   0.85580   0.20109   89.40430
1056   0.09613   -0.47560   0.85611   0.20255   0.09613   -0.47560   0.85611   0.20255   89.40735
1057   0.09622   -0.47441   0.85681   0.20276   0.09622   -0.47441   0.85681   0.20276   89.24561
1058   0.09618   -0.47441   0.85644   0.20371   0.09618   -0.47441   0.85644   0.20371   89.30969
1059   0.09614   -0.47496   0.85647   0.20295   0.09614   -0.47496   0.85647   0.20295   89.36157
1060   0.09613   -0.47884   0.85452   0.20151   0.09613   -0.47884   0.85452   0.20151   89.34021
1061   0.09610   -0.47499   0.85675   0.20148   0.09610   -0.47499   0.85675   0.20148   89.39514
1062   0.09602   -0.47578   0.85669   0.20023   0.09602   -0.47578   0.85669   0.20023   89.36768
1063   0.09610   -0.47319   0.85699   0.20441   0.09610   -0.47319   0.85699   0.20441   89.32800
1064   0.09615   -0.47450   0.85705   0.20127   0.09615   -0.47450   0.85705   0.20127   89.33411
1065   0.09611   -0.47432   0.85723   0.20106   0.09611   -0.47432   0.85723   0.20106   89.45313
1066   0.09613   -0.47298   0.85733   0.20347   0.09613   -0.47298   0.85733   0.20347   89.24561
1067   0.09620   -0.47154   0.85858   0.20200   0.09620   -0.47154   0.85858   0.20200   89.34021
1068   0.09628   -0.47032   0.85797   0.20713   0.09628   -0.47032   0.85797   0.20713   89.08081
1069   0.09620   -0.47124   0.85803   0.20490   0.09620   -0.47124   0.85803   0.20490   89.23340
1070   0.09622   -0.47041   0.85852   0.20457   0.09622   -0.47041   0.85852   0.20457   89.25476
1071   0.09631   -0.46977   0.85885   0.20499   0.09631   -0.46977   0.85885   0.20499   89.16931
1072   0.09629   -0.47102   0.85855   0.20341   0.09629   -0.47102   0.85855   0.20341   89.28223
1073   0.09614   -0.47349   0.85745   0.20215   0.09614   -0.47349   0.85745   0.20215   89.36157
1074   0.09608   -0.47523   0.85650   0.20164   0.09608   -0.47523   0.85650   0.20164   89.33411
1075   0.09609   -0.47526   0.85705   0.19944   0.09609   -0.47526   0.85705   0.19944   89.36462
1076   0.09610   -0.47566   0.85644   0.20078   0.09610   -0.47566   0.85644   0.20078   89.44092
1077   0.09605   -0.47398   0.85730   0.20173   0.09605   -0.47398   0.85730   0.20173   89.38904
1078   0.09610   -0.47441   0.85687   0.20255   0.09610   -0.47441   0.85687   0.20255   89.34631
1079   0.09621   -0.47343   0.85693   0.20396   0.09621   -0.47343   0.85693   0.20396   89.18762
1080   0.09615   -0.47331   0.85726   0.20307   0.09615   -0.47331   0.85726   0.20307   89.35242
1081   0.09614   -0.47230   0.85760   0.20417   0.09614   -0.47230   0.85760   0.20417   89.25781
1082   0.09620   -0.47404   0.85632   0.20539   0.09620   -0.47404   0.85632   0.20539   89.20593
1083   0.09624   -0.47404   0.85696   0.20298   0.09624   -0.47404   0.85696   0.20298   89.27612
1084   0.09617   -0.47426   0.85696   0.20234   0.09617   -0.47426   0.85696   0.20234   89.28833
1085   0.09613   -0.47420   0.85699   0.20212   0.09613   -0.47420   0.85699   0.20212   89.40735
1086   0.09619   -0.47414   0.85678   0.20353   0.09619   -0.47414   0.85678   0.20353   89.27002
1087   0.09616   -0.47459   0.85623   0.20460   0.09616   -0.47459   0.85623   0.20460   89.16321
1088   0.09605   -0.47429   0.85659   0.20396   0.09605   -0.47429   0.85659   0.20396   89.22729
1089   0.09609   -0.47258   0.85730   0.20444   0.09609   -0.47258   0.85730   0.20444   89.30664
1090   0.09613   -0.47307   0.85672   0.20594   0.09613   -0.47307   0.85672   0.20594   89.13879
1091   0.09615   -0.47221   0.85726   0.20576   0.09615   -0.47221   0.85726   0.20576   89.19067
1092   0.09608   -0.47450   0.85644   0.20399   0.09608   -0.47450   0.85644   0.20399   89.25781
1093   0.09615   -0.47356   0.85714   0.20304   0.09615   -0.47356   0.85714   0.20304   89.36157
1094   0.09623   -0.47215   0.85757   0.20414   0.09623   -0.47215   0.85757   0.20414   89.24561
1095   0.09618   -0.47380   0.85711   0.20267   0.09618   -0.47380   0.85711   0.20267   89.28833
1096   0.09618   -0.47279   0.85730   0.20414   0.09618   -0.47279   0.85730   0.20414   89.21204
1097   0.09616   -0.47517   0.85626   0.20334   0.09616   -0.47517   0.85626   0.20334   89.29749
1098   0.09615   -0.47450   0.85684   0.20252   0.09615   -0.47450   0.85684   0.20252   89.38293
1099   0.09615   -0.47325   0.85711   0.20359   0.09615   -0.47325   0.85711   0.20359   89.27612
1100   0.09608   -0.47224   0.85760   0.20441   0.09608   -0.47224   0.85760   0.20441   89.25781
1101   0.09610   -0.47499   0.85632   0.20344   0.09610   -0.47499   0.85632   0.20344   89.45313
1102   0.09622   -0.47414   0.85653   0.20447   0.09622   -0.47414   0.85653   0.20447   89.23645
1103   0.09614   -0.47365   0.85678   0.20460   0.09614   -0.47365   0.85678   0.20460   89.19067
1104   0.09612   -0.47411   0.85632   0.20539   0.09612   -0.47411   0.85632   0.20539   89.17847
1105   0.09614   -0.47523   0.85595   0.20414   0.09614   -0.47523   0.85595   0.20414   89.26392
1106   0.09617   -0.47508   0.85614   0.20389   0.09617   -0.47508   0.85614   0.20389   89.27002
1107   0.09614   -0.47453   0.85617   0.20484   0.09614   -0.47453   0.85617   0.20484   89.20898
1108   0.09621   -0.47407   0.85650   0.20469   0.09621   -0.47407   0.85650   0.20469   89.15100
1109   0.09621   -0.47417   0.85629   0.20508   0.09621   -0.47417   0.85629   0.20508   89.17847
1110   0.09616   -0.47465   0.85623   0.20426   0.09616   -0.47465   0.85623   0.20426   89.25781
1111   0.09614   -0.47468   0.85623   0.20450   0.09614   -0.47468   0.85623   0.20450   89.23645
1112   0.09618   -0.47417   0.85641   0.20454   0.09618   -0.47417   0.85641   0.20454   89.20288
1113   0.09614   -0.47407   0.85669   0.20417   0.09614   -0.47407   0.85669   0.20417   89.16931
1114   0.09602   -0.47554   0.85571   0.20438   0.09602   -0.47554   0.85571   0.20438   89.26086
1115   0.09609   -0.47407   0.85644   0.20457   0.09609   -0.47407   0.85644   0.20457   89.20288
1116   0.09615   -0.47539   0.85562   0.20524   0.09615   -0.47539   0.85562   0.20524   89.16321
1117   0.09613   -0.47493   0.85586   0.20524   0.09613   -0.47493   0.85586   0.20524   89.21509
1118   0.09583   -0.47523   0.85595   0.20447   0.09583   -0.47523   0.85595   0.20447   89.27917
1119   0.09588   -0.47459   0.85614   0.20505   0.09588   -0.47459   0.85614   0.20505   89.21814
1120   0.09621   -0.47368   0.85644   0.20545   0.09621   -0.47368   0.85644   0.20545   89.20593
1121   0.09626   -0.47407   0.85635   0.20527   0.09626   -0.47407   0.85635   0.20527   89.21204
1122   0.09612   -0.47487   0.85595   0.20493   0.09612   -0.47487   0.85595   0.20493   89.15710
1123   0.09610   -0.47490   0.85549   0.20704   0.09610   -0.47490   0.85549   0.20704   89.14795
1124   0.09614   -0.47557   0.85565   0.20487   0.09614   -0.47557   0.85565   0.20487   89.16016
1125   0.09608   -0.47459   0.85583   0.20624   0.09608   -0.47459   0.85583   0.20624   89.18152
1126   0.09595   -0.47609   0.85513   0.20576   0.09595   -0.47609   0.85513   0.20576   89.17847
1127   0.09608   -0.47523   0.85580   0.20484   0.09608   -0.47523   0.85580   0.20484   89.24866
1128   0.09609   -0.47597   0.85562   0.20405   0.09609   -0.47597   0.85562   0.20405   89.11743
1129   0.09602   -0.47536   0.85626   0.20307   0.09602   -0.47536   0.85626   0.20307   89.30969
1130   0.09604   -0.47584   0.85577   0.20322   0.09604   -0.47584   0.85577   0.20322   89.40735
1131   0.09614   -0.47511   0.85568   0.20582   0.09614   -0.47511   0.85568   0.20582   89.20898
1132   0.09614   -0.47645   0.85528   0.20435   0.09614   -0.47645   0.85528   0.20435   89.24561
1133   0.09615   -0.47392   0.85638   0.20576   0.09615   -0.47392   0.85638   0.20576   89.12354
1134   0.09614   -0.47667   0.85525   0.20380   0.09614   -0.47667   0.85525   0.20380   89.25781
1135   0.09623   -0.47542   0.85513   0.20713   0.09623   -0.47542   0.85513   0.20713   89.07471
1136   0.09629   -0.47667   0.85470   0.20609   0.09629   -0.47667   0.85470   0.20609   89.01672
1137   0.09618   -0.47502   0.85553   0.20652   0.09618   -0.47502   0.85553   0.20652   89.15710
1138   0.09616   -0.47426   0.85568   0.20756   0.09616   -0.47426   0.85568   0.20756   89.13574
1139   0.09613   -0.47380   0.85632   0.20618   0.09613   -0.47380   0.85632   0.20618   89.09302
1140   0.09617   -0.47478   0.85589   0.20548   0.09617   -0.47478   0.85589   0.20548   89.16321
1141   0.09621   -0.47404   0.85653   0.20444   0.09621   -0.47404   0.85653   0.20444   89.20593
1142   0.09620   -0.47508   0.85580   0.20530   0.09620   -0.47508   0.85580   0.20530   89.17847
1143   0.09611   -0.47710   0.85452   0.20582   0.09611   -0.47710   0.85452   0.20582   89.19678
1144   0.09613   -0.47609   0.85504   0.20627   0.09613   -0.47609   0.85504   0.20627   89.16016
1145   0.09616   -0.47581   0.85476   0.20783   0.09616   -0.47581   0.85476   0.20783   89.07776
1146   0.09621   -0.47581   0.85482   0.20768   0.09621   -0.47581   0.85482   0.20768   89.11133
1147   0.09619   -0.47591   0.85510   0.20624   0.09619   -0.47591   0.85510   0.20624   89.10828
1148   0.09613   -0.47642   0.85522   0.20472   0.09613   -0.47642   0.85522   0.20472   89.23645
1149   0.09619   -0.47795   0.85449   0.20438   0.09619   -0.47795   0.85449   0.20438   89.17542
1150   0.09616   -0.47838   0.85385   0.20573   0.09616   -0.47838   0.85385   0.20573   89.11438
1151   0.09605   -0.47917   0.85360   0.20478   0.09605   -0.47917   0.85360   0.20478   89.14185
1152   0.09594   -0.47847   0.85354   0.20698   0.09594   -0.47847   0.85354   0.20698   89.14795
1153   0.09612   -0.47789   0.85388   0.20719   0.09612   -0.47789   0.85388   0.20719   89.04419
1154   0.09605   -0.47862   0.85339   0.20682   0.09605   -0.47862   0.85339   0.20682   89.17847
1155   0.09605   -0.47911   0.85314   0.20701   0.09605   -0.47911   0.85314   0.20701   89.05640
1156   0.09605   -0.47905   0.85321   0.20701   0.09605   -0.47905   0.85321   0.20701   89.10217
1157   0.09620   -0.47847   0.85311   0.20856   0.09620   -0.47847   0.85311   0.20856   88.94958
1158   0.09615   -0.47862   0.85333   0.20746   0.09615   -0.47862   0.85333   0.20746   88.96179
1159   0.09607   -0.47917   0.85302   0.20731   0.09607   -0.47917   0.85302   0.20731   89.19983
1160   0.09611   -0.47810   0.85369   0.20707   0.09611   -0.47810   0.85369   0.20707   89.16626
1161   0.09620   -0.47984   0.85275   0.20661   0.09620   -0.47984   0.85275   0.20661   89.05334
1162   0.09614   -0.47969   0.85272   0.20713   0.09614   -0.47969   0.85272   0.20713   89.01978
1163   0.09603   -0.48024   0.85314   0.20429   0.09603   -0.48024   0.85314   0.20429   89.20593
1164   0.09600   -0.48122   0.85232   0.20539   0.09600   -0.48122   0.85232   0.20539   89.07776
1165   0.09606   -0.47838   0.85336   0.20756   0.09606   -0.47838   0.85336   0.20756   89.01062
1166   0.09606   -0.48012   0.85281   0.20615   0.09606   -0.48012   0.85281   0.20615   88.98926
1167   0.09598   -0.48003   0.85266   0.20670   0.09598   -0.48003   0.85266   0.20670   89.14185
1168   0.09611   -0.47871   0.85321   0.20746   0.09611   -0.47871   0.85321   0.20746   89.02283
1169   0.09613   -0.47917   0.85284   0.20792   0.09613   -0.47917   0.85284   0.20792   89.01672
1170   0.09611   -0.47960   0.85275   0.20777   0.09611   -0.47960   0.85275   0.20777   89.02283
1171   0.09609   -0.48036   0.85229   0.20762   0.09609   -0.48036   0.85229   0.20762   89.05945
1172   0.09616   -0.48018   0.85244   0.20740   0.09616   -0.48018   0.85244   0.20740   89.05029
1173   0.09614   -0.47816   0.85293   0.20991   0.09614   -0.47816   0.85293   0.20991   88.93433
1174   0.09612   -0.47990   0.85263   0.20728   0.09612   -0.47990   0.85263   0.20728   89.09302
1175   0.09613   -0.47960   0.85284   0.20704   0.09613   -0.47960   0.85284   0.20704   89.04419
1176   0.09607   -0.48067   0.85208   0.20743   0.09607   -0.48067   0.85208   0.20743   89.01978
1177   0.09599   -0.48112   0.85232   0.20588   0.09599   -0.48112   0.85232   0.20588   89.09607
1178   0.09596   -0.48180   0.85162   0.20698   0.09596   -0.48180   0.85162   0.20698   89.06555
1179   0.09603   -0.48143   0.85171   0.20704   0.09603   -0.48143   0.85171   0.20704   89.08997
1180   0.09606   -0.48054   0.85211   0.20771   0.09606   -0.48054   0.85211   0.20771   89.02893
1181   0.09607   -0.47902   0.85226   0.21052   0.09607   -0.47902   0.85226   0.21052   88.92517
1182   0.09607   -0.48289   0.85058   0.20847   0.09607   -0.48289   0.85058   0.20847   88.85803
1183   0.09613   -0.48183   0.85131   0.20792   0.09613   -0.48183   0.85131   0.20792   88.95874
1184   0.09609   -0.48131   0.85186   0.20719   0.09609   -0.48131   0.85186   0.20719   89.05029
1185   0.09606   -0.48207   0.85159   0.20652   0.09606   -0.48207   0.85159   0.20652   89.08691
1186   0.09607   -0.48192   0.85150   0.20698   0.09607   -0.48192   0.85150   0.20698   89.13269
1187   0.09616   -0.48228   0.85122   0.20743   0.09616   -0.48228   0.85122   0.20743   89.01062
1188   0.09609   -0.48192   0.85171   0.20603   0.09609   -0.48192   0.85171   0.20603   89.08997
1189   0.09602   -0.48161   0.85159   0.20753   0.09602   -0.48161   0.85159   0.20753   89.05029
1190   0.09597   -0.48195   0.85116   0.20862   0.09597   -0.48195   0.85116   0.20862   88.98010
1191   0.09611   -0.48125   0.85141   0.20884   0.09611   -0.48125   0.85141   0.20884   88.81531
1192   0.09601   -0.47868   0.85278   0.20975   0.09601   -0.47868   0.85278   0.20975   89.00146
1193   0.09604   -0.48094   0.85195   0.20777   0.09604   -0.48094   0.85195   0.20777   89.02588
1194   0.09613   -0.48112   0.85131   0.20988   0.09613   -0.48112   0.85131   0.20988   88.85498
1195   0.09615   -0.47975   0.85226   0.20930   0.09615   -0.47975   0.85226   0.20930   88.89465
1196   0.09605   -0.48299   0.85052   0.20917   0.09605   -0.48299   0.85052   0.20917   88.94043
1197   0.09606   -0.48149   0.85137   0.20869   0.09606   -0.48149   0.85137   0.20869   88.97095
1198   0.09616   -0.48079   0.85159   0.20936   0.09616   -0.48079   0.85159   0.20936   88.95264
1199   0.09614   -0.48268   0.85089   0.20817   0.09614   -0.48268   0.85089   0.20817   88.92212
1200   0.09601   -0.48347   0.85104   0.20524   0.09601   -0.48347   0.85104   0.20524   89.06860
1201   0.09585   -0.48274   0.85089   0.20808   0.09585   -0.48274   0.85089   0.20808   88.94653
1202   0.09597   -0.48347   0.85080   0.20667   0.09597   -0.48347   0.85080   0.20667   88.99841
1203   0.09603   -0.48317   0.85116   0.20548   0.09603   -0.48317   0.85116   0.20548   89.05334
1204   0.09605   -0.48418   0.85022   0.20740   0.09605   -0.48418   0.85022   0.20740   89.02588
1205   0.09600   -0.48421   0.85049   0.20560   0.09600   -0.48421   0.85049   0.20560   89.09607
1206   0.09610   -0.48387   0.85034   0.20734   0.09610   -0.48387   0.85034   0.20734   88.87024
1207   0.09606   -0.48534   0.84957   0.20688   0.09606   -0.48534   0.84957   0.20688   88.97095
1208   0.09610   -0.48421   0.85018   0.20759   0.09610   -0.48421   0.85018   0.20759   88.97400
1209   0.09615   -0.48354   0.85058   0.20737   0.09615   -0.48354   0.85058   0.20737   89.04724
1210   0.09614   -0.48564   0.84973   0.20585   0.09614   -0.48564   0.84973   0.20585   89.06555
1211   0.09611   -0.48506   0.84997   0.20640   0.09611   -0.48506   0.84997   0.20640   88.95874
1212   0.09610   -0.48521   0.84976   0.20664   0.09610   -0.48521   0.84976   0.20664   89.02283
1213   0.09614   -0.48579   0.84936   0.20698   0.09614   -0.48579   0.84936   0.20698   89.00757
1214   0.09606   -0.48448   0.84973   0.20862   0.09606   -0.48448   0.84973   0.20862   88.91296
1215   0.09601   -0.48457   0.84976   0.20838   0.09601   -0.48457   0.84976   0.20838   88.92517
1216   0.09595   -0.48524   0.84921   0.20908   0.09595   -0.48524   0.84921   0.20908   88.91907
1217   0.09607   -0.48259   0.85058   0.20978   0.09607   -0.48259   0.85058   0.20978   88.96179
1218   0.09616   -0.48219   0.85052   0.21061   0.09616   -0.48219   0.85052   0.21061   88.75427
1219   0.09620   -0.48256   0.85040   0.21009   0.09620   -0.48256   0.85040   0.21009   88.94043
1220   0.09607   -0.48503   0.84948   0.20850   0.09607   -0.48503   0.84948   0.20850   88.91602
1221   0.09593   -0.48408   0.84964   0.20948   0.09593   -0.48408   0.84964   0.20948   88.88855
1222   0.09605   -0.48424   0.85015   0.20698   0.09605   -0.48424   0.85015   0.20698   88.96790
1223   0.09626   -0.48317   0.85052   0.20832   0.09626   -0.48317   0.85052   0.20832   88.92517
1224   0.09626   -0.48344   0.85012   0.20933   0.09626   -0.48344   0.85012   0.20933   88.86108
1225   0.09614   -0.48418   0.84985   0.20850   0.09614   -0.48418   0.84985   0.20850   88.95264
1226   0.09603   -0.48439   0.84982   0.20835   0.09603   -0.48439   0.84982   0.20835   88.90076
1227   0.09605   -0.48399   0.84988   0.20875   0.09605   -0.48399   0.84988   0.20875   88.87329
1228   0.09610   -0.48390   0.85031   0.20768   0.09610   -0.48390   0.85031   0.20768   88.89771
1229   0.09598   -0.48537   0.84927   0.20826   0.09598   -0.48537   0.84927   0.20826   88.88550
1230   0.09595   -0.48503   0.84939   0.20850   0.09595   -0.48503   0.84939   0.20850   88.93127
1231   0.09603   -0.48415   0.84973   0.20887   0.09603   -0.48415   0.84973   0.20887   88.89160
1232   0.09608   -0.48372   0.84994   0.20936   0.09608   -0.48372   0.84994   0.20936   88.89771
1233   0.09606   -0.48393   0.84997   0.20890   0.09606   -0.48393   0.84997   0.20890   88.82751
1234   0.09606   -0.48439   0.85025   0.20701   0.09606   -0.48439   0.85025   0.20701   88.98010
1235   0.09616   -0.48366   0.85003   0.20939   0.09616   -0.48366   0.85003   0.20939   88.95264
1236   0.09629   -0.48509   0.84939   0.20832   0.09629   -0.48509   0.84939   0.20832   88.85498
1237   0.09606   -0.48439   0.84979   0.20856   0.09606   -0.48439   0.84979   0.20856   88.91296
1238   0.09586   -0.48402   0.84985   0.20933   0.09586   -0.48402   0.84985   0.20933   89.00452
1239   0.09613   -0.48375   0.84991   0.20933   0.09613   -0.48375   0.84991   0.20933   88.79700
1240   0.09613   -0.48274   0.85022   0.21073   0.09613   -0.48274   0.85022   0.21073   88.80615
1241   0.09594   -0.48219   0.85092   0.20878   0.09594   -0.48219   0.85092   0.20878   88.92822
1242   0.09589   -0.48375   0.84967   0.21003   0.09589   -0.48375   0.84967   0.21003   88.89465
1243   0.09598   -0.48378   0.84970   0.21003   0.09598   -0.48378   0.84970   0.21003   88.85803
1244   0.09605   -0.48436   0.84967   0.20908   0.09605   -0.48436   0.84967   0.20908   88.76953
1245   0.09601   -0.48268   0.85083   0.20847   0.09601   -0.48268   0.85083   0.20847   88.98315
1246   0.09608   -0.48378   0.85046   0.20753   0.09608   -0.48378   0.85046   0.20753   88.89771
1247   0.09612   -0.48375   0.85043   0.20725   0.09612   -0.48375   0.85043   0.20725   88.95874
1248   0.09606   -0.48585   0.84915   0.20743   0.09606   -0.48585   0.84915   0.20743   88.91296
1249   0.09604   -0.48585   0.84899   0.20789   0.09604   -0.48585   0.84899   0.20789   89.05334
1250   0.09610   -0.48436   0.85000   0.20740   0.09610   -0.48436   0.85000   0.20740   88.93738
1251   0.09613   -0.48448   0.84988   0.20792   0.09613   -0.48448   0.84988   0.20792   88.92212
1252   0.09607   -0.48332   0.85040   0.20866   0.09607   -0.48332   0.85040   0.20866   88.88550
1253   0.09604   -0.48350   0.84976   0.21058   0.09604   -0.48350   0.84976   0.21058   88.83362
1254   0.09598   -0.48393   0.84988   0.20884   0.09598   -0.48393   0.84988   0.20884   88.87634
1255   0.09596   -0.48476   0.84954   0.20829   0.09596   -0.48476   0.84954   0.20829   88.94958
1256   0.09601   -0.48363   0.85012   0.20890   0.09601   -0.48363   0.85012   0.20890   88.83057
1257   0.09604   -0.48436   0.84939   0.20994   0.09604   -0.48436   0.84939   0.20994   88.91907
1258   0.09608   -0.48158   0.85064   0.21155   0.09608   -0.48158   0.85064   0.21155   88.82141
1259   0.09605   -0.48296   0.85022   0.21012   0.09605   -0.48296   0.85022   0.21012   88.87329
1260   0.09610   -0.48198   0.85043   0.21158   0.09610   -0.48198   0.85043   0.21158   88.83362
1261   0.09614   -0.48292   0.84982   0.21201   0.09614   -0.48292   0.84982   0.21201   88.72375
1262   0.09613   -0.48292   0.84991   0.21168   0.09613   -0.48292   0.84991   0.21168   88.76953
1263   0.09605   -0.48155   0.85080   0.21107   0.09605   -0.48155   0.85080   0.21107   88.81836
1264   0.09610   -0.48262   0.85049   0.20945   0.09610   -0.48262   0.85049   0.20945   88.93738
1265   0.09609   -0.48277   0.85046   0.20927   0.09609   -0.48277   0.85046   0.20927   88.92517
1266   0.09605   -0.48344   0.85025   0.20893   0.09605   -0.48344   0.85025   0.20893   88.91296
1267   0.09592   -0.48341   0.85003   0.20997   0.09592   -0.48341   0.85003   0.20997   88.86719
1268   0.09604   -0.48393   0.84988   0.20954   0.09604   -0.48393   0.84988   0.20954   88.84277
1269   0.09605   -0.48292   0.85000   0.21058   0.09605   -0.48292   0.85000   0.21058   88.83667
1270   0.09603   -0.48320   0.85009   0.21012   0.09603   -0.48320   0.85009   0.21012   88.83362
1271   0.09598   -0.48262   0.85012   0.21079   0.09598   -0.48262   0.85012   0.21079   88.89465
1272   0.09610   -0.48265   0.85015   0.21082   0.09610   -0.48265   0.85015   0.21082   88.85193
1273   0.09611   -0.48228   0.85034   0.21110   0.09611   -0.48228   0.85034   0.21110   88.84277
1274   0.09608   -0.48241   0.85031   0.21073   0.09608   -0.48241   0.85031   0.21073   88.87634
1275   0.09603   -0.48152   0.85070   0.21146   0.09603   -0.48152   0.85070   0.21146   88.94653
1276   0.09615   -0.48247   0.85006   0.21201   0.09615   -0.48247   0.85006   0.21201   88.73291
1277   0.09616   -0.48231   0.85018   0.21168   0.09616   -0.48231   0.85018   0.21168   88.77258
1278   0.09603   -0.48259   0.85034   0.21009   0.09603   -0.48259   0.85034   0.21009   88.92822
1279   0.09601   -0.48329   0.85018   0.20923   0.09601   -0.48329   0.85018   0.20923   88.90686
1280   0.09599   -0.48302   0.84976   0.21152   0.09599   -0.48302   0.84976   0.21152   88.73291
1281   0.09607   -0.48375   0.84973   0.21015   0.09607   -0.48375   0.84973   0.21015   88.78174
1282   0.09598   -0.48244   0.85003   0.21198   0.09598   -0.48244   0.85003   0.21198   88.82751
1283   0.09605   -0.48372   0.84954   0.21107   0.09605   -0.48372   0.84954   0.21107   88.81836
1284   0.09609   -0.48259   0.84994   0.21165   0.09609   -0.48259   0.84994   0.21165   88.74512
1285   0.09608   -0.48308   0.84988   0.21110   0.09608   -0.48308   0.84988   0.21110   88.77258
1286   0.09608   -0.48329   0.84988   0.21076   0.09608   -0.48329   0.84988   0.21076   88.78174
1287   0.09612   -0.48192   0.85025   0.21213   0.09612   -0.48192   0.85025   0.21213   88.85498
1288   0.09612   -0.48360   0.84976   0.21049   0.09612   -0.48360   0.84976   0.21049   88.79700
1289   0.09608   -0.48408   0.84967   0.20972   0.09608   -0.48408   0.84967   0.20972   88.88855
1290   0.09607   -0.48320   0.84994   0.21085   0.09607   -0.48320   0.84994   0.21085   88.90686
1291   0.09608   -0.48305   0.85018   0.20991   0.09608   -0.48305   0.85018   0.20991   88.88855
1292   0.09600   -0.48256   0.85012   0.21146   0.09600   -0.48256   0.85012   0.21146   88.82141
1293   0.09594   -0.48442   0.84951   0.20951   0.09594   -0.48442   0.84951   0.20951   88.86108
1294   0.09604   -0.48170   0.85076   0.21097   0.09604   -0.48170   0.85076   0.21097   88.86414
1295   0.09605   -0.48155   0.85080   0.21070   0.09605   -0.48155   0.85080   0.21070   88.84583
1296   0.09605   -0.48152   0.85083   0.21082   0.09605   -0.48152   0.85083   0.21082   88.84583
1297   0.09601   -0.48143   0.85080   0.21119   0.09601   -0.48143   0.85080   0.21119   88.93738
1298   0.09613   -0.48146   0.85064   0.21204   0.09613   -0.48146   0.85064   0.21204   88.82446
1299   0.09606   -0.48195   0.85046   0.21104   0.09606   -0.48195   0.85046   0.21104   88.88550
1300   0.09611   -0.48140   0.85049   0.21244   0.09611   -0.48140   0.85049   0.21244   88.76648
1301   0.09615   -0.48247   0.85031   0.21070   0.09615   -0.48247   0.85031   0.21070   88.83972
1302   0.09625   -0.48332   0.85025   0.20923   0.09625   -0.48332   0.85025   0.20923   88.90686
1303   0.09617   -0.48161   0.85119   0.20905   0.09617   -0.48161   0.85119   0.20905   88.89771
1304   0.09602   -0.48314   0.85061   0.20841   0.09602   -0.48314   0.85061   0.20841   88.91907
1305   0.09601   -0.48146   0.85098   0.21027   0.09601   -0.48146   0.85098   0.21027   88.91602
1306   0.09607   -0.48164   0.85101   0.20960   0.09607   -0.48164   0.85101   0.20960   88.81836
1307   0.09603   -0.48183   0.85086   0.21030   0.09603   -0.48183   0.85086   0.21030   88.86108
1308   0.09597   -0.48256   0.85073   0.20862   0.09597   -0.48256   0.85073   0.20862   88.94043
1309   0.09608   -0.48009   0.85183   0.21039   0.09608   -0.48009   0.85183   0.21039   88.94348
1310   0.09613   -0.48167   0.85119   0.20908   0.09613   -0.48167   0.85119   0.20908   88.85498
1311   0.09605   -0.48183   0.85125   0.20859   0.09605   -0.48183   0.85125   0.20859   88.94043
1312   0.09605   -0.48076   0.85125   0.21104   0.09605   -0.48076   0.85125   0.21104   88.96790
1313   0.09617   -0.48186   0.85128   0.20817   0.09617   -0.48186   0.85128   0.20817   88.87939
1314   0.09614   -0.48045   0.85177   0.20945   0.09614   -0.48045   0.85177   0.20945   88.91296
1315   0.09610   -0.48268   0.85080   0.20841   0.09610   -0.48268   0.85080   0.20841   88.94653
1316   0.09609   -0.48161   0.85110   0.20930   0.09609   -0.48161   0.85110   0.20930   88.98315
1317   0.09610   -0.48201   0.85119   0.20847   0.09610   -0.48201   0.85119   0.20847   88.88855
1318   0.09576   -0.48250   0.85083   0.20859   0.09576   -0.48250   0.85083   0.20859   88.90686
1319   0.09571   -0.48201   0.85116   0.20838   0.09571   -0.48201   0.85116   0.20838   88.96790
1320   0.09601   -0.48115   0.85134   0.20978   0.09601   -0.48115   0.85134   0.20978   88.89771
1321   0.09619   -0.48186   0.85095   0.20951   0.09619   -0.48186   0.85095   0.20951   88.86108
1322   0.09607   -0.48155   0.85131   0.20884   0.09607   -0.48155   0.85131   0.20884   88.91602
1323   0.09597   -0.48146   0.85144   0.20841   0.09597   -0.48146   0.85144   0.20841   88.98010
1324   0.09605   -0.48122   0.85134   0.20960   0.09605   -0.48122   0.85134   0.20960   88.96790
1325   0.09612   -0.48131   0.85162   0.20777   0.09612   -0.48131   0.85162   0.20777   88.94958
1326   0.09610   -0.48170   0.85131   0.20835   0.09610   -0.48170   0.85131   0.20835   88.98621
1327   0.09613   -0.48146   0.85159   0.20783   0.09613   -0.48146   0.85159   0.20783   88.96790
1328   0.09614   -0.48061   0.85189   0.20835   0.09614   -0.48061   0.85189   0.20835   88.96179
1329   0.09607   -0.48125   0.85131   0.20957   0.09607   -0.48125   0.85131   0.20957   88.90686
1330   0.09605   -0.48186   0.85147   0.20768   0.09605   -0.48186   0.85147   0.20768   88.96790
1331   0.09595   -0.47987   0.85211   0.20939   0.09595   -0.47987   0.85211   0.20939   88.99536
1332   0.09605   -0.47884   0.85272   0.20957   0.09605   -0.47884   0.85272   0.20957   88.99841
1333   0.09601   -0.47914   0.85284   0.20811   0.09601   -0.47914   0.85284   0.20811   89.03198
1334   0.09605   -0.48012   0.85229   0.20853   0.09605   -0.48012   0.85229   0.20853   88.98926
1335   0.09617   -0.47960   0.85238   0.20890   0.09617   -0.47960   0.85238   0.20890   88.97400
1336   0.09624   -0.47954   0.85275   0.20762   0.09624   -0.47954   0.85275   0.20762   88.99231
1337   0.09614   -0.47920   0.85284   0.20841   0.09614   -0.47920   0.85284   0.20841   89.04724
1338   0.09614   -0.47923   0.85278   0.20829   0.09614   -0.47923   0.85278   0.20829   89.02588
1339   0.09627   -0.48088   0.85189   0.20768   0.09627   -0.48088   0.85189   0.20768   88.91907
1340   0.09623   -0.47893   0.85284   0.20878   0.09623   -0.47893   0.85284   0.20878   89.03809
1341   0.09620   -0.47880   0.85327   0.20692   0.09620   -0.47880   0.85327   0.20692   89.03503
1342   0.09614   -0.47905   0.85302   0.20737   0.09614   -0.47905   0.85302   0.20737   89.16016
1343   0.09617   -0.47957   0.85275   0.20765   0.09617   -0.47957   0.85275   0.20765   88.96484
1344   0.09605   -0.47832   0.85321   0.20817   0.09605   -0.47832   0.85321   0.20817   89.00757
1345   0.09605   -0.47960   0.85284   0.20688   0.09605   -0.47960   0.85284   0.20688   89.12048
1346   0.09605   -0.47792   0.85348   0.20789   0.09605   -0.47792   0.85348   0.20789   89.10217
1347   0.09619   -0.47832   0.85336   0.20774   0.09619   -0.47832   0.85336   0.20774   89.03198
1348   0.09612   -0.47807   0.85354   0.20734   0.09612   -0.47807   0.85354   0.20734   89.01672
1349   0.09610   -0.47783   0.85388   0.20664   0.09610   -0.47783   0.85388   0.20664   89.08081
1350   0.09614   -0.47871   0.85330   0.20731   0.09614   -0.47871   0.85330   0.20731   89.08386
1351   0.09622   -0.47792   0.85385   0.20670   0.09622   -0.47792   0.85385   0.20670   89.10217
1352   0.09615   -0.47658   0.85482   0.20569   0.09615   -0.47658   0.85482   0.20569   89.13269
1353   0.09610   -0.47801   0.85369   0.20750   0.09610   -0.47801   0.85369   0.20750   89.17542
1354   0.09621   -0.47716   0.85455   0.20582   0.09621   -0.47716   0.85455   0.20582   89.12964
1355   0.09614   -0.47758   0.85379   0.20780   0.09614   -0.47758   0.85379   0.20780   89.07471
1356   0.09605   -0.47713   0.85427   0.20713   0.09605   -0.47713   0.85427   0.20713   89.04419
1357   0.09601   -0.47697   0.85427   0.20685   0.09601   -0.47697   0.85427   0.20685   89.05945
1358   0.09609   -0.47774   0.85369   0.20789   0.09609   -0.47774   0.85369   0.20789   89.09912
1359   0.09615   -0.47575   0.85507   0.20673   0.09615   -0.47575   0.85507   0.20673   89.02893
1360   0.09607   -0.47768   0.85418   0.20579   0.09607   -0.47768   0.85418   0.20579   89.08691
1361   0.09610   -0.47682   0.85437   0.20707   0.09610   -0.47682   0.85437   0.20707   89.13574
1362   0.09619   -0.47673   0.85476   0.20557   0.09619   -0.47673   0.85476   0.20557   89.07166
1363   0.09613   -0.47774   0.85400   0.20664   0.09613   -0.47774   0.85400   0.20664   89.11133
1364   0.09613   -0.47700   0.85443   0.20661   0.09613   -0.47700   0.85443   0.20661   89.12964
1365   0.09615   -0.47575   0.85495   0.20762   0.09615   -0.47575   0.85495   0.20762   89.08691
1366   0.09617   -0.47710   0.85470   0.20499   0.09617   -0.47710   0.85470   0.20499   89.18457
1367   0.09618   -0.47459   0.85556   0.20725   0.09618   -0.47459   0.85556   0.20725   89.10828
1368   0.09614   -0.47554   0.85516   0.20673   0.09614   -0.47554   0.85516   0.20673   89.08386
1369   0.09614   -0.47658   0.85452   0.20685   0.09614   -0.47658   0.85452   0.20685   89.00757
1370   0.09605   -0.47536   0.85498   0.20820   0.09605   -0.47536   0.85498   0.20820   89.02588
1371   0.09608   -0.47481   0.85565   0.20685   0.09608   -0.47481   0.85565   0.20685   89.10522
1372   0.09611   -0.47545   0.85537   0.20627   0.09611   -0.47545   0.85537   0.20627   89.15710
1373   0.09617   -0.47551   0.85528   0.20603   0.09617   -0.47551   0.85528   0.20603   89.05945
1374   0.09614   -0.47514   0.85534   0.20682   0.09614   -0.47514   0.85534   0.20682   89.04724
1375   0.09613   -0.47475   0.85540   0.20731   0.09613   -0.47475   0.85540   0.20731   89.11133
1376   0.09623   -0.47462   0.85574   0.20649   0.09623   -0.47462   0.85574   0.20649   89.08386
1377   0.09622   -0.47468   0.85577   0.20603   0.09622   -0.47468   0.85577   0.20603   89.10217
1378   0.09615   -0.47475   0.85553   0.20707   0.09615   -0.47475   0.85553   0.20707   89.11438
1379   0.09614   -0.47624   0.85504   0.20551   0.09614   -0.47624   0.85504   0.20551   89.24561
1380   0.09625   -0.47438   0.85559   0.20789   0.09625   -0.47438   0.85559   0.20789   89.00146
1381   0.09614   -0.47502   0.85546   0.20676   0.09614   -0.47502   0.85546   0.20676   89.08386
1382   0.09605   -0.47514   0.85540   0.20670   0.09605   -0.47514   0.85540   0.20670   89.07471
1383   0.09603   -0.47496   0.85525   0.20750   0.09603   -0.47496   0.85525   0.20750   89.11133
1384   0.09614   -0.47533   0.85516   0.20728   0.09614   -0.47533   0.85516   0.20728   89.06555
1385   0.09613   -0.47551   0.85528   0.20591   0.09613   -0.47551   0.85528   0.20591   89.10217
1386   0.09607   -0.47356   0.85629   0.20640   0.09607   -0.47356   0.85629   0.20640   89.24866
1387   0.09614   -0.47542   0.85528   0.20667   0.09614   -0.47542   0.85528   0.20667   89.14185
1388   0.09623   -0.47456   0.85589   0.20582   0.09623   -0.47456   0.85589   0.20582   89.10522
1389   0.09617   -0.47432   0.85598   0.20655   0.09617   -0.47432   0.85598   0.20655   89.11743
1390   0.09614   -0.47411   0.85595   0.20664   0.09614   -0.47411   0.85595   0.20664   89.16931
1391   0.09622   -0.47432   0.85592   0.20646   0.09622   -0.47432   0.85592   0.20646   89.08386
1392   0.09625   -0.47411   0.85574   0.20783   0.09625   -0.47411   0.85574   0.20783   89.06860
1393   0.09617   -0.47459   0.85601   0.20548   0.09617   -0.47459   0.85601   0.20548   89.11743
1394   0.09610   -0.47465   0.85565   0.20704   0.09610   -0.47465   0.85565   0.20704   89.10828
1395   0.09611   -0.47374   0.85653   0.20585   0.09611   -0.47374   0.85653   0.20585   89.10828
1396   0.09614   -0.47316   0.85665   0.20627   0.09614   -0.47316   0.85665   0.20627   89.13269
1397   0.09608   -0.47349   0.85641   0.20618   0.09608   -0.47349   0.85641   0.20618   89.14490
1398   0.09608   -0.47313   0.85656   0.20676   0.09608   -0.47313   0.85656   0.20676   89.23950
1399   0.09615   -0.47505   0.85598   0.20466   0.09615   -0.47505   0.85598   0.20466   89.19067
1400   0.09611   -0.47435   0.85614   0.20539   0.09611   -0.47435   0.85614   0.20539   89.18457
1401   0.09592   -0.47462   0.85629   0.20420   0.09592   -0.47462   0.85629   0.20420   89.21204
1402   0.09606   -0.47389   0.85641   0.20536   0.09606   -0.47389   0.85641   0.20536   89.24866
1403   0.09626   -0.47493   0.85583   0.20539   0.09626   -0.47493   0.85583   0.20539   89.10828
1404   0.09624   -0.47423   0.85611   0.20569   0.09624   -0.47423   0.85611   0.20569   89.16321
1405   0.09618   -0.47441   0.85623   0.20487   0.09618   -0.47441   0.85623   0.20487   89.27002
1406   0.09618   -0.47383   0.85604   0.20713   0.09618   -0.47383   0.85604   0.20713   89.10828
1407   0.09618   -0.47316   0.85647   0.20649   0.09618   -0.47316   0.85647   0.20649   89.11743
1408   0.09607   -0.47417   0.85592   0.20643   0.09607   -0.47417   0.85592   0.20643   89.15405
1409   0.09618   -0.47411   0.85617   0.20597   0.09618   -0.47411   0.85617   0.20597   89.13574
1410   0.09616   -0.47301   0.85669   0.20673   0.09616   -0.47301   0.85669   0.20673   89.14490
1411   0.09618   -0.47179   0.85736   0.20624   0.09618   -0.47179   0.85736   0.20624   89.14795
1412   0.09614   -0.47261   0.85717   0.20508   0.09614   -0.47261   0.85717   0.20508   89.21814
1413   0.09620   -0.47191   0.85733   0.20618   0.09620   -0.47191   0.85733   0.20618   89.17847
1414   0.09624   -0.47224   0.85730   0.20527   0.09624   -0.47224   0.85730   0.20527   89.11438
1415   0.09621   -0.47313   0.85684   0.20536   0.09621   -0.47313   0.85684   0.20536   89.15100
1416   0.09621   -0.47194   0.85751   0.20554   0.09621   -0.47194   0.85751   0.20554   89.18762
1417   0.09627   -0.47136   0.85748   0.20707   0.09627   -0.47136   0.85748   0.20707   89.08081
1418   0.09634   -0.47118   0.85717   0.20841   0.09634   -0.47118   0.85717   0.20841   89.05945
1419   0.09632   -0.47322   0.85681   0.20548   0.09632   -0.47322   0.85681   0.20548   89.15100
1420   0.09614   -0.47252   0.85699   0.20646   0.09614   -0.47252   0.85699   0.20646   89.13269
1421   0.09593   -0.47273   0.85687   0.20643   0.09593   -0.47273   0.85687   0.20643   89.17542
1422   0.09617   -0.47102   0.85760   0.20692   0.09617   -0.47102   0.85760   0.20692   89.10828
1423   0.09618   -0.47230   0.85730   0.20496   0.09618   -0.47230   0.85730   0.20496   89.28833
1424   0.09627   -0.47142   0.85791   0.20508   0.09627   -0.47142   0.85791   0.20508   89.25171
1425   0.09626   -0.47233   0.85726   0.20524   0.09626   -0.47233   0.85726   0.20524   89.18457
1426   0.09618   -0.47371   0.85690   0.20365   0.09618   -0.47371   0.85690   0.20365   89.19373
1427   0.09612   -0.47331   0.85714   0.20399   0.09612   -0.47331   0.85714   0.20399   89.21509
1428   0.09624   -0.47301   0.85717   0.20454   0.09624   -0.47301   0.85717   0.20454   89.19067
1429   0.09629   -0.47243   0.85760   0.20396   0.09629   -0.47243   0.85760   0.20396   89.22424
1430   0.09625   -0.47310   0.85681   0.20530   0.09625   -0.47310   0.85681   0.20530   89.18152
1431   0.09616   -0.47227   0.85717   0.20585   0.09616   -0.47227   0.85717   0.20585   89.20288
1432   0.09614   -0.47456   0.85635   0.20399   0.09614   -0.47456   0.85635   0.20399   89.24561
1433   0.09618   -0.47298   0.85711   0.20478   0.09618   -0.47298   0.85711   0.20478   89.17542
1434   0.09610   -0.47261   0.85720   0.20508   0.09610   -0.47261   0.85720   0.20508   89.15710
1435   0.09613   -0.47349   0.85681   0.20478   0.09613   -0.47349   0.85681   0.20478   89.24561
1436   0.09627   -0.47246   0.85702   0.20585   0.09627   -0.47246   0.85702   0.20585   89.24255
1437   0.09626   -0.47224   0.85733   0.20563   0.09626   -0.47224   0.85733   0.20563   89.06860
1438   0.09591   -0.47423   0.85669   0.20328   0.09591   -0.47423   0.85669   0.20328   89.32495
1439   0.09608   -0.47304   0.85699   0.20502   0.09608   -0.47304   0.85699   0.20502   89.21204
1440   0.09621   -0.47258   0.85730   0.20505   0.09621   -0.47258   0.85730   0.20505   89.25476
1441   0.09620   -0.47267   0.85717   0.20515   0.09620   -0.47267   0.85717   0.20515   89.25476
1442   0.09614   -0.47200   0.85754   0.20460   0.09614   -0.47200   0.85754   0.20460   89.28528
1443   0.09614   -0.47224   0.85739   0.20469   0.09614   -0.47224   0.85739   0.20469   89.26392
1444   0.09622   -0.47264   0.85723   0.20490   0.09622   -0.47264   0.85723   0.20490   89.17847
1445   0.09617   -0.47273   0.85705   0.20557   0.09617   -0.47273   0.85705   0.20557   89.15405
1446   0.09610   -0.47185   0.85742   0.20548   0.09610   -0.47185   0.85742   0.20548   89.11743
1447   0.09613   -0.47212   0.85726   0.20594   0.09613   -0.47212   0.85726   0.20594   89.12964
1448   0.09611   -0.47298   0.85714   0.20450   0.09611   -0.47298   0.85714   0.20450   89.26086
1449   0.09607   -0.47264   0.85736   0.20408   0.09607   -0.47264   0.85736   0.20408   89.30664
1450   0.09611   -0.47322   0.85699   0.20466   0.09611   -0.47322   0.85699   0.20466   89.26086
1451   0.09617   -0.47462   0.85678   0.20215   0.09617   -0.47462   0.85678   0.20215   89.37378
1452   0.09619   -0.47374   0.85684   0.20405   0.09619   -0.47374   0.85684   0.20405   89.24255
1453   0.09612   -0.47462   0.85681   0.20200   0.09612   -0.47462   0.85681   0.20200   89.33105
1454   0.09618   -0.47380   0.85699   0.20356   0.09618   -0.47380   0.85699   0.20356   89.32800
1455   0.09624   -0.47407   0.85650   0.20463   0.09624   -0.47407   0.85650   0.20463   89.19067
1456   0.09620   -0.47346   0.85669   0.20511   0.09620   -0.47346   0.85669   0.20511   89.23340
1457   0.09609   -0.47517   0.85638   0.20261   0.09609   -0.47517   0.85638   0.20261   89.30664
1458   0.09616   -0.47459   0.85623   0.20490   0.09616   -0.47459   0.85623   0.20490   89.20288
1459   0.09610   -0.47374   0.85681   0.20441   0.09610   -0.47374   0.85681   0.20441   89.22424
1460   0.09610   -0.47328   0.85708   0.20429   0.09610   -0.47328   0.85708   0.20429   89.19373
1461   0.09606   -0.47374   0.85665   0.20463   0.09606   -0.47374   0.85665   0.20463   89.32495
1462   0.09619   -0.47304   0.85714   0.20423   0.09619   -0.47304   0.85714   0.20423   89.19373
1463   0.09620   -0.47444   0.85656   0.20338   0.09620   -0.47444   0.85656   0.20338   89.21509
1464   0.09612   -0.47331   0.85696   0.20438   0.09612   -0.47331   0.85696   0.20438   89.29138
1465   0.09616   -0.47288   0.85717   0.20432   0.09616   -0.47288   0.85717   0.20432   89.30664
1466   0.09626   -0.47221   0.85730   0.20539   0.09626   -0.47221   0.85730   0.20539   89.20288
1467   0.09627   -0.47252   0.85723   0.20527   0.09627   -0.47252   0.85723   0.20527   89.17542
1468   0.09618   -0.47340   0.85708   0.20341   0.09618   -0.47340   0.85708   0.20341   89.23340
1469   0.09621   -0.47340   0.85720   0.20362   0.09621   -0.47340   0.85720   0.20362   89.25476
1470   0.09624   -0.47343   0.85714   0.20331   0.09624   -0.47343   0.85714   0.20331   89.26697
1471   0.09614   -0.47511   0.85662   0.20157   0.09614   -0.47511   0.85662   0.20157   89.33105
1472   0.09597   -0.47438   0.85681   0.20258   0.09597   -0.47438   0.85681   0.20258   89.42871
1473   0.09612   -0.47404   0.85696   0.20240   0.09612   -0.47404   0.85696   0.20240   89.34937
1474   0.09608   -0.47560   0.85678   0.19999   0.09608   -0.47560   0.85678   0.19999   89.41956
1475   0.09609   -0.47542   0.85662   0.20093   0.09609   -0.47542   0.85662   0.20093   89.46838
1476   0.09607   -0.47523   0.85662   0.20167   0.09607   -0.47523   0.85662   0.20167   89.45923
1477   0.09620   -0.47432   0.85681   0.20316   0.09620   -0.47432   0.85681   0.20316   89.26392
1478   0.09624   -0.47316   0.85723   0.20386   0.09624   -0.47316   0.85723   0.20386   89.19983
1479   0.09619   -0.47392   0.85665   0.20426   0.09619   -0.47392   0.85665   0.20426   89.16626
1480   0.09622   -0.47243   0.85745   0.20463   0.09622   -0.47243   0.85745   0.20463   89.20898
1481   0.09625   -0.47374   0.85672   0.20435   0.09625   -0.47374   0.85672   0.20435   89.19067
1482   0.09620   -0.47389   0.85690   0.20344   0.09620   -0.47389   0.85690   0.20344   89.25476
1483   0.09616   -0.47407   0.85665   0.20411   0.09616   -0.47407   0.85665   0.20411   89.17236
1484   0.09618   -0.47371   0.85690   0.20365   0.09618   -0.47371   0.85690   0.20365   89.17542
1485   0.09609   -0.47310   0.85684   0.20539   0.09609   -0.47310   0.85684   0.20539   89.14490
1486   0.09614   -0.47295   0.85714   0.20417   0.09614   -0.47295   0.85714   0.20417   89.18152
1487   0.09608   -0.47310   0.85690   0.20508   0.09608   -0.47310   0.85690   0.20508   89.23035
1488   0.09623   -0.47221   0.85723   0.20585   0.09623   -0.47221   0.85723   0.20585   89.19067
1489   0.09621   -0.47240   0.85754   0.20475   0.09621   -0.47240   0.85754   0.20475   89.16931
1490   0.09617   -0.47240   0.85739   0.20481   0.09617   -0.47240   0.85739   0.20481   89.23035
1491   0.09618   -0.47468   0.85653   0.20310   0.09618   -0.47468   0.85653   0.20310   89.23340
1492   0.09627   -0.47392   0.85653   0.20460   0.09627   -0.47392   0.85653   0.20460   89.12964
1493   0.09623   -0.47176   0.85775   0.20444   0.09623   -0.47176   0.85775   0.20444   89.26697
1494   0.09617   -0.47411   0.85672   0.20386   0.09617   -0.47411   0.85672   0.20386   89.25171
1495   0.09619   -0.47435   0.85653   0.20396   0.09619   -0.47435   0.85653   0.20396   89.31885
1496   0.09630   -0.46989   0.85885   0.20472   0.09630   -0.46989   0.85885   0.20472   89.17847
1497   0.09613   -0.47197   0.85760   0.20463   0.09613   -0.47197   0.85760   0.20463   89.26392
1498   0.09604   -0.47139   0.85815   0.20399   0.09604   -0.47139   0.85815   0.20399   89.30969
1499   0.09619   -0.47166   0.85751   0.20612   0.09619   -0.47166   0.85751   0.20612   89.13879
1500   0.09618   -0.47267   0.85723   0.20487   0.09618   -0.47267   0.85723   0.20487   89.15710
1501   0.09619   -0.47237   0.85748   0.20447   0.09619   -0.47237   0.85748   0.20447   89.26086
1502   0.09624   -0.47176   0.85748   0.20606   0.09624   -0.47176   0.85748   0.20606   89.18152
1503   0.09624   -0.47304   0.85687   0.20524   0.09624   -0.47304   0.85687   0.20524   89.28528
1504   0.09624   -0.47237   0.85739   0.20469   0.09624   -0.47237   0.85739   0.20469   89.19067
1505   0.09615   -0.47398   0.85705   0.20267   0.09615   -0.47398   0.85705   0.20267   89.26697
1506   0.09614   -0.47203   0.85784   0.20383   0.09614   -0.47203   0.85784   0.20383   89.40735
1507   0.09624   -0.47371   0.85684   0.20389   0.09624   -0.47371   0.85684   0.20389   89.28528
1508   0.09622   -0.47383   0.85662   0.20423   0.09622   -0.47383   0.85662   0.20423   89.17847
1509   0.09612   -0.47264   0.85723   0.20475   0.09612   -0.47264   0.85723   0.20475   89.25476
1510   0.09604   -0.47377   0.85656   0.20490   0.09604   -0.47377   0.85656   0.20490   89.23340
1511   0.09611   -0.47496   0.85620   0.20396   0.09611   -0.47496   0.85620   0.20396   89.16626
1512   0.09614   -0.47353   0.85708   0.20328   0.09614   -0.47353   0.85708   0.20328   89.26697
1513   0.09608   -0.47374   0.85629   0.20634   0.09608   -0.47374   0.85629   0.20634   89.08691
1514   0.09614   -0.47224   0.85723   0.20582   0.09614   -0.47224   0.85723   0.20582   89.23645
1515   0.09618   -0.47291   0.85717   0.20447   0.09618   -0.47291   0.85717   0.20447   89.18457
1516   0.09623   -0.47270   0.85693   0.20554   0.09623   -0.47270   0.85693   0.20554   89.09607
1517   0.09613   -0.47404   0.85632   0.20515   0.09613   -0.47404   0.85632   0.20515   89.20593
1518   0.09600   -0.47417   0.85693   0.20298   0.09600   -0.47417   0.85693   0.20298   89.34631
1519   0.09589   -0.47301   0.85690   0.20551   0.09589   -0.47301   0.85690   0.20551   89.21814
1520   0.09617   -0.47459   0.85623   0.20490   0.09617   -0.47459   0.85623   0.20490   89.19373
1521   0.09625   -0.47325   0.85681   0.20560   0.09625   -0.47325   0.85681   0.20560   89.22119
1522   0.09621   -0.47356   0.85702   0.20368   0.09621   -0.47356   0.85702   0.20368   89.28223
1523   0.09603   -0.47209   0.85745   0.20533   0.09603   -0.47209   0.85745   0.20533   89.21509
1524   0.09603   -0.47307   0.85720   0.20402   0.09603   -0.47307   0.85720   0.20402   89.19678
1525   0.09606   -0.47478   0.85620   0.20447   0.09606   -0.47478   0.85620   0.20447   89.26697
1526   0.09613   -0.47563   0.85641   0.20133   0.09613   -0.47563   0.85641   0.20133   89.36768
1527   0.09608   -0.47621   0.85556   0.20383   0.09608   -0.47621   0.85556   0.20383   89.27002
1528   0.09610   -0.47575   0.85556   0.20429   0.09610   -0.47575   0.85556   0.20429   89.22424
1529   0.09613   -0.47679   0.85492   0.20484   0.09613   -0.47679   0.85492   0.20484   89.25476
1530   0.09616   -0.47694   0.85507   0.20362   0.09616   -0.47694   0.85507   0.20362   89.18152
1531   0.09614   -0.47676   0.85528   0.20350   0.09614   -0.47676   0.85528   0.20350   89.24561
1532   0.09614   -0.47542   0.85565   0.20502   0.09614   -0.47542   0.85565   0.20502   89.28528
1533   0.09624   -0.47673   0.85495   0.20496   0.09624   -0.47673   0.85495   0.20496   89.16321
1534   0.09616   -0.47597   0.85498   0.20609   0.09616   -0.47597   0.85498   0.20609   89.14490
1535   0.09606   -0.47667   0.85504   0.20447   0.09606   -0.47667   0.85504   0.20447   89.32495
1536   0.09613   -0.47645   0.85498   0.20582   0.09613   -0.47645   0.85498   0.20582   89.13879
1537   0.09626   -0.47554   0.85559   0.20481   0.09626   -0.47554   0.85559   0.20481   89.21204
1538   0.09610   -0.47725   0.85488   0.20386   0.09610   -0.47725   0.85488   0.20386   89.20288
1539   0.09606   -0.47838   0.85406   0.20484   0.09606   -0.47838   0.85406   0.20484   89.24866
1540   0.09625   -0.47667   0.85488   0.20511   0.09625   -0.47667   0.85488   0.20511   89.12659
1541   0.09633   -0.47682   0.85482   0.20542   0.09633   -0.47682   0.85482   0.20542   89.14490
1542   0.09619   -0.47801   0.85452   0.20402   0.09619   -0.47801   0.85452   0.20402   89.27002
1543   0.09615   -0.47676   0.85452   0.20670   0.09615   -0.47676   0.85452   0.20670   89.14490
1544   0.09625   -0.47755   0.85424   0.20603   0.09625   -0.47755   0.85424   0.20603   89.06860
1545   0.09622   -0.47816   0.85391   0.20576   0.09622   -0.47816   0.85391   0.20576   89.13269
1546   0.09617   -0.47746   0.85421   0.20627   0.09617   -0.47746   0.85421   0.20627   89.19373
1547   0.09614   -0.47890   0.85376   0.20505   0.09614   -0.47890   0.85376   0.20505   89.15100
1548   0.09615   -0.47783   0.85415   0.20527   0.09615   -0.47783   0.85415   0.20527   89.17236
1549   0.09606   -0.47771   0.85424   0.20563   0.09606   -0.47771   0.85424   0.20563   89.15100
1550   0.09605   -0.47780   0.85434   0.20490   0.09605   -0.47780   0.85434   0.20490   89.23645
1551   0.09606   -0.47536   0.85513   0.20725   0.09606   -0.47536   0.85513   0.20725   89.18152
1552   0.09611   -0.47926   0.85330   0.20624   0.09611   -0.47926   0.85330   0.20624   89.09912
1553   0.09613   -0.47795   0.85418   0.20511   0.09613   -0.47795   0.85418   0.20511   89.10217
1554   0.09612   -0.47792   0.85391   0.20670   0.09612   -0.47792   0.85391   0.20670   89.12048
1555   0.09619   -0.47847   0.85394   0.20511   0.09619   -0.47847   0.85394   0.20511   89.15710
1556   0.09615   -0.47896   0.85336   0.20673   0.09615   -0.47896   0.85336   0.20673   89.15405
1557   0.09615   -0.47786   0.85409   0.20643   0.09615   -0.47786   0.85409   0.20643   89.13269
1558   0.09617   -0.47737   0.85443   0.20563   0.09617   -0.47737   0.85443   0.20563   89.17542
1559   0.09620   -0.47752   0.85394   0.20716   0.09620   -0.47752   0.85394   0.20716   89.08081
1560   0.09614   -0.47932   0.85324   0.20609   0.09614   -0.47932   0.85324   0.20609   89.01978
1561   0.09607   -0.47801   0.85424   0.20490   0.09607   -0.47801   0.85424   0.20490   89.15405
1562   0.09605   -0.48039   0.85305   0.20481   0.09605   -0.48039   0.85305   0.20481   89.07471
1563   0.09612   -0.48033   0.85272   0.20566   0.09612   -0.48033   0.85272   0.20566   89.08081
1564   0.09605   -0.48079   0.85284   0.20463   0.09605   -0.48079   0.85284   0.20463   89.13269
1565   0.09608   -0.48076   0.85284   0.20444   0.09608   -0.48076   0.85284   0.20444   89.17236
1566   0.09610   -0.48045   0.85290   0.20487   0.09610   -0.48045   0.85290   0.20487   89.20288
1567   0.09614   -0.48033   0.85302   0.20490   0.09614   -0.48033   0.85302   0.20490   89.17847
1568   0.09606   -0.48192   0.85241   0.20368   0.09606   -0.48192   0.85241   0.20368   89.19067
1569   0.09609   -0.48085   0.85241   0.20609   0.09609   -0.48085   0.85241   0.20609   89.12659
1570   0.09616   -0.48198   0.85192   0.20475   0.09616   -0.48198   0.85192   0.20475   89.09607
1571   0.09618   -0.47963   0.85269   0.20774   0.09618   -0.47963   0.85269   0.20774   88.99536
1572   0.09611   -0.48021   0.85287   0.20582   0.09611   -0.48021   0.85287   0.20582   89.08997
1573   0.09604   -0.48039   0.85244   0.20670   0.09604   -0.48039   0.85244   0.20670   89.18762
1574   0.09607   -0.47935   0.85299   0.20701   0.09607   -0.47935   0.85299   0.20701   89.05640
1575   0.09600   -0.48103   0.85229   0.20618   0.09600   -0.48103   0.85229   0.20618   89.09607
1576   0.09601   -0.48018   0.85260   0.20658   0.09601   -0.48018   0.85260   0.20658   89.10828
1577   0.09605   -0.48045   0.85250   0.20618   0.09605   -0.48045   0.85250   0.20618   89.16016
1578   0.09611   -0.48033   0.85247   0.20661   0.09611   -0.48033   0.85247   0.20661   89.08081
1579   0.09608   -0.47911   0.85327   0.20637   0.09608   -0.47911   0.85327   0.20637   89.05945
1580   0.09607   -0.48027   0.85260   0.20661   0.09607   -0.48027   0.85260   0.20661   89.08691
1581   0.09615   -0.47929   0.85269   0.20820   0.09615   -0.47929   0.85269   0.20820   89.01062
1582   0.09620   -0.47926   0.85284   0.20780   0.09620   -0.47926   0.85284   0.20780   88.96790
1583   0.09610   -0.48198   0.85159   0.20676   0.09610   -0.48198   0.85159   0.20676   89.01367
1584   0.09607   -0.48082   0.85199   0.20746   0.09607   -0.48082   0.85199   0.20746   89.10522
1585   0.09617   -0.47911   0.85281   0.20850   0.09617   -0.47911   0.85281   0.20850   88.96484
1586   0.09609   -0.48012   0.85241   0.20740   0.09609   -0.48012   0.85241   0.20740   89.06860
1587   0.09593   -0.48061   0.85217   0.20707   0.09593   -0.48061   0.85217   0.20707   89.12659
1588   0.09598   -0.48021   0.85257   0.20649   0.09598   -0.48021   0.85257   0.20649   89.14185
1589   0.09607   -0.48225   0.85174   0.20515   0.09607   -0.48225   0.85174   0.20515   89.01978
1590   0.09604   -0.48088   0.85208   0.20685   0.09604   -0.48088   0.85208   0.20685   89.05334
1591   0.09605   -0.48079   0.85208   0.20728   0.09605   -0.48079   0.85208   0.20728   89.02588
1592   0.09607   -0.48079   0.85171   0.20881   0.09607   -0.48079   0.85171   0.20881   89.04724
1593   0.09612   -0.47969   0.85211   0.20975   0.09612   -0.47969   0.85211   0.20975   88.91907
1594   0.09609   -0.48064   0.85211   0.20768   0.09609   -0.48064   0.85211   0.20768   88.99231
1595   0.09607   -0.48079   0.85189   0.20786   0.09607   -0.48079   0.85189   0.20786   89.11438
1596   0.09609   -0.48088   0.85162   0.20878   0.09609   -0.48088   0.85162   0.20878   89.04114
1597   0.09614   -0.48231   0.85101   0.20786   0.09614   -0.48231   0.85101   0.20786   88.93433
1598   0.09607   -0.48317   0.85092   0.20664   0.09607   -0.48317   0.85092   0.20664   88.97095
1599   0.09601   -0.48244   0.85128   0.20728   0.09601   -0.48244   0.85128   0.20728   89.05945
1600   0.09594   -0.48250   0.85125   0.20670   0.09594   -0.48250   0.85125   0.20670   88.97705
1601   0.09576   -0.48308   0.85076   0.20725   0.09576   -0.48308   0.85076   0.20725   88.97400
1602   0.09592   -0.48302   0.85098   0.20664   0.09592   -0.48302   0.85098   0.20664   88.87634
1603   0.09608   -0.48302   0.85098   0.20698   0.09608   -0.48302   0.85098   0.20698   89.04114
1604   0.09614   -0.48250   0.85086   0.20884   0.09614   -0.48250   0.85086   0.20884   88.94043
1605   0.09606   -0.48207   0.85110   0.20847   0.09606   -0.48207   0.85110   0.20847   88.97095
1606   0.09603   -0.48326   0.85076   0.20710   0.09603   -0.48326   0.85076   0.20710   89.00452
1607   0.09612   -0.48393   0.85055   0.20655   0.09612   -0.48393   0.85055   0.20655   88.99536
1608   0.09617   -0.48405   0.85070   0.20533   0.09617   -0.48405   0.85070   0.20533   89.01367
1609   0.09614   -0.48375   0.85058   0.20649   0.09614   -0.48375   0.85058   0.20649   89.03809
1610   0.09607   -0.48534   0.85006   0.20505   0.09607   -0.48534   0.85006   0.20505   89.07776
1611   0.09613   -0.48305   0.85080   0.20743   0.09613   -0.48305   0.85080   0.20743   88.98926
1612   0.09609   -0.48488   0.85012   0.20600   0.09609   -0.48488   0.85012   0.20600   89.01367
1613   0.09591   -0.48448   0.85003   0.20746   0.09591   -0.48448   0.85003   0.20746   88.94348
1614   0.09593   -0.48375   0.85028   0.20804   0.09593   -0.48375   0.85028   0.20804   89.06250
1615   0.09610   -0.48357   0.85012   0.20902   0.09610   -0.48357   0.85012   0.20902   88.85193
1616   0.09608   -0.48369   0.85031   0.20814   0.09608   -0.48369   0.85031   0.20814   88.90686
1617   0.09598   -0.48424   0.85009   0.20750   0.09598   -0.48424   0.85009   0.20750   88.94348
1618   0.09613   -0.48299   0.85073   0.20753   0.09613   -0.48299   0.85073   0.20753   89.00757
1619   0.09629   -0.48387   0.84988   0.20936   0.09629   -0.48387   0.84988   0.20936   88.94043
1620   0.09614   -0.48326   0.85061   0.20811   0.09614   -0.48326   0.85061   0.20811   88.94043
1621   0.09587   -0.48408   0.85009   0.20808   0.09587   -0.48408   0.85009   0.20808   89.01672
1622   0.09603   -0.48454   0.85000   0.20743   0.09603   -0.48454   0.85000   0.20743   88.91907
1623   0.09625   -0.48491   0.84957   0.20798   0.09625   -0.48491   0.84957   0.20798   88.88855
1624   0.09618   -0.48515   0.84927   0.20859   0.09618   -0.48515   0.84927   0.20859   88.85193
1625   0.09602   -0.48549   0.84945   0.20765   0.09602   -0.48549   0.84945   0.20765   88.98621
1626   0.09591   -0.48546   0.84921   0.20817   0.09591   -0.48546   0.84921   0.20817   88.91602
1627   0.09603   -0.48497   0.84954   0.20804   0.09603   -0.48497   0.84954   0.20804   88.85193
1628   0.09602   -0.48329   0.85031   0.20896   0.09602   -0.48329   0.85031   0.20896   88.89771
1629   0.09605   -0.48439   0.84945   0.20966   0.09605   -0.48439   0.84945   0.20966   88.95874
1630   0.09608   -0.48515   0.84936   0.20844   0.09608   -0.48515   0.84936   0.20844   88.85803
1631   0.09607   -0.48503   0.84924   0.20923   0.09607   -0.48503   0.84924   0.20923   88.83972
1632   0.09602   -0.48549   0.84948   0.20737   0.09602   -0.48549   0.84948   0.20737   88.88855
1633   0.09605   -0.48521   0.84945   0.20774   0.09605   -0.48521   0.84945   0.20774   89.01672
1634   0.09614   -0.48518   0.84906   0.20948   0.09614   -0.48518   0.84906   0.20948   88.82751
1635   0.09619   -0.48463   0.84945   0.20905   0.09619   -0.48463   0.84945   0.20905   88.86108
1636   0.09617   -0.48534   0.84909   0.20920   0.09617   -0.48534   0.84909   0.20920   88.88855
1637   0.09605   -0.48436   0.84982   0.20859   0.09605   -0.48436   0.84982   0.20859   89.00757
1638   0.09580   -0.48555   0.84933   0.20731   0.09580   -0.48555   0.84933   0.20731   89.03503
1639   0.09582   -0.48476   0.84976   0.20780   0.09582   -0.48476   0.84976   0.20780   88.99231
1640   0.09595   -0.48582   0.84902   0.20811   0.09595   -0.48582   0.84902   0.20811   88.95874
1641   0.09601   -0.48399   0.85003   0.20847   0.09601   -0.48399   0.85003   0.20847   88.92517
1642   0.09598   -0.48515   0.84951   0.20792   0.09598   -0.48515   0.84951   0.20792   88.88550
1643   0.09593   -0.48292   0.85052   0.20902   0.09593   -0.48292   0.85052   0.20902   88.90991
1644   0.09600   -0.48512   0.84951   0.20795   0.09600   -0.48512   0.84951   0.20795   88.92517
1645   0.09605   -0.48521   0.84939   0.20811   0.09605   -0.48521   0.84939   0.20811   88.89465
1646   0.09604   -0.48497   0.84945   0.20881   0.09604   -0.48497   0.84945   0.20881   88.91907
1647   0.09600   -0.48558   0.84915   0.20838   0.09600   -0.48558   0.84915   0.20838   88.89771
1648   0.09607   -0.48485   0.84976   0.20743   0.09607   -0.48485   0.84976   0.20743   88.94348
1649   0.09606   -0.48485   0.84964   0.20789   0.09606   -0.48485   0.84964   0.20789   88.97095
1650   0.09599   -0.48436   0.84964   0.20905   0.09599   -0.48436   0.84964   0.20905   88.90686
1651   0.09589   -0.48509   0.84973   0.20728   0.09589   -0.48509   0.84973   0.20728   88.97095
1652   0.09597   -0.48430   0.84985   0.20841   0.09597   -0.48430   0.84985   0.20841   88.90381
1653   0.09602   -0.48305   0.85031   0.20933   0.09602   -0.48305   0.85031   0.20933   88.92822
1654   0.09596   -0.48433   0.84967   0.20893   0.09596   -0.48433   0.84967   0.20893   88.96790
1655   0.09598   -0.48338   0.85012   0.20960   0.09598   -0.48338   0.85012   0.20960   88.93433
1656   0.09610   -0.48433   0.84942   0.21012   0.09610   -0.48433   0.84942   0.21012   88.80310
1657   0.09614   -0.48222   0.85052   0.21067   0.09614   -0.48222   0.85052   0.21067   88.82751
1658   0.09603   -0.48302   0.85012   0.21009   0.09603   -0.48302   0.85012   0.21009   88.91907
1659   0.09611   -0.47996   0.85128   0.21259   0.09611   -0.47996   0.85128   0.21259   88.84277
1660   0.09619   -0.48296   0.84994   0.21113   0.09619   -0.48296   0.84994   0.21113   88.75732
1661   0.09616   -0.48247   0.85034   0.21064   0.09616   -0.48247   0.85034   0.21064   88.78174
1662   0.09603   -0.48180   0.85031   0.21226   0.09603   -0.48180   0.85031   0.21226   88.84277
1663   0.09605   -0.48177   0.85064   0.21088   0.09605   -0.48177   0.85064   0.21088   88.90381
1664   0.09603   -0.48125   0.85058   0.21247   0.09603   -0.48125   0.85058   0.21247   88.80615
1665   0.09605   -0.48152   0.85083   0.21082   0.09605   -0.48152   0.85083   0.21082   88.84583
1666   0.09598   -0.48305   0.85028   0.20957   0.09598   -0.48305   0.85028   0.20957   88.87634
1667   0.09604   -0.48408   0.84988   0.20853   0.09604   -0.48408   0.84988   0.20853   88.94958
1668   0.09611   -0.48384   0.85003   0.20884   0.09611   -0.48384   0.85003   0.20884   88.88245
1669   0.09607   -0.48332   0.84991   0.21018   0.09607   -0.48332   0.84991   0.21018   88.81836
1670   0.09605   -0.48421   0.84948   0.21006   0.09605   -0.48421   0.84948   0.21006   88.79700
1671   0.09611   -0.48329   0.84982   0.21067   0.09611   -0.48329   0.84982   0.21067   88.86108
1672   0.09617   -0.48140   0.85086   0.21076   0.09617   -0.48140   0.85086   0.21076   88.83972
1673   0.09611   -0.48241   0.85022   0.21131   0.09611   -0.48241   0.85022   0.21131   88.79395
1674   0.09611   -0.48280   0.84979   0.21189   0.09611   -0.48280   0.84979   0.21189   88.73901
1675   0.09611   -0.48277   0.84991   0.21162   0.09611   -0.48277   0.84991   0.21162   88.85193
1676   0.09608   -0.48207   0.85012   0.21238   0.09608   -0.48207   0.85012   0.21238   88.77258
1677   0.09596   -0.48119   0.85067   0.21220   0.09596   -0.48119   0.85067   0.21220   88.81531
1678   0.09606   -0.48057   0.85092   0.21238   0.09606   -0.48057   0.85092   0.21238   88.79089
1679   0.09603   -0.48164   0.85046   0.21198   0.09603   -0.48164   0.85046   0.21198   88.84277
1680   0.09605   -0.48241   0.85015   0.21171   0.09605   -0.48241   0.85015   0.21171   88.76953
1681   0.09605   -0.48235   0.85064   0.21009   0.09605   -0.48235   0.85064   0.21009   88.90381
1682   0.09611   -0.48231   0.85064   0.21009   0.09611   -0.48231   0.85064   0.21009   88.85193
1683   0.09608   -0.48256   0.85052   0.21006   0.09608   -0.48256   0.85052   0.21006   88.88855
1684   0.09605   -0.48207   0.85067   0.21052   0.09605   -0.48207   0.85067   0.21052   88.92212
1685   0.09609   -0.48405   0.84948   0.21043   0.09609   -0.48405   0.84948   0.21043   88.83057
1686   0.09615   -0.48341   0.84988   0.20997   0.09615   -0.48341   0.84988   0.20997   88.79089
1687   0.09614   -0.48360   0.84939   0.21171   0.09614   -0.48360   0.84939   0.21171   88.78784
1688   0.09604   -0.48384   0.84942   0.21110   0.09604   -0.48384   0.84942   0.21110   88.75732
1689   0.09601   -0.48274   0.85009   0.21079   0.09601   -0.48274   0.85009   0.21079   88.87024
1690   0.09600   -0.48244   0.85022   0.21094   0.09600   -0.48244   0.85022   0.21094   88.81226
1691   0.09603   -0.48259   0.85028   0.21061   0.09603   -0.48259   0.85028   0.21061   88.84277
1692   0.09596   -0.48277   0.85034   0.20975   0.09596   -0.48277   0.85034   0.20975   88.83667
1693   0.09607   -0.48238   0.85070   0.20957   0.09607   -0.48238   0.85070   0.20957   88.86719
1694   0.09610   -0.48247   0.85049   0.21015   0.09610   -0.48247   0.85049   0.21015   88.79395
1695   0.09605   -0.48247   0.85049   0.20994   0.09605   -0.48247   0.85049   0.20994   88.88550
1696   0.09601   -0.48164   0.85046   0.21183   0.09601   -0.48164   0.85046   0.21183   88.86108
1697   0.09610   -0.48238   0.85022   0.21134   0.09610   -0.48238   0.85022   0.21134   88.84277
1698   0.09613   -0.48219   0.85031   0.21128   0.09613   -0.48219   0.85031   0.21128   88.81531
1699   0.09606   -0.48289   0.85015   0.21061   0.09606   -0.48289   0.85015   0.21061   88.87634
1700   0.09604   -0.48161   0.85073   0.21110   0.09604   -0.48161   0.85073   0.21110   88.90076
1701   0.09620   -0.48244   0.85058   0.20988   0.09620   -0.48244   0.85058   0.20988   88.81531
1702   0.09615   -0.48189   0.85095   0.20978   0.09615   -0.48189   0.85095   0.20978   88.87634
1703   0.09599   -0.48076   0.85116   0.21119   0.09599   -0.48076   0.85116   0.21119   88.94348
1704   0.09595   -0.48396   0.84976   0.20951   0.09595   -0.48396   0.84976   0.20951   88.88245
1705   0.09603   -0.48305   0.85025   0.20991   0.09603   -0.48305   0.85025   0.20991   88.88245
1706   0.09611   -0.48247   0.85061   0.20957   0.09611   -0.48247   0.85061   0.20957   88.76648
1707   0.09597   -0.48244   0.85034   0.21094   0.09597   -0.48244   0.85034   0.21094   88.94958
1708   0.09605   -0.48192   0.85058   0.21064   0.09605   -0.48192   0.85058   0.21064   88.90076
1709   0.09609   -0.48186   0.85095   0.20923   0.09609   -0.48186   0.85095   0.20923   88.95569
1710   0.09611   -0.48219   0.85064   0.21009   0.09611   -0.48219   0.85064   0.21009   88.85193
1711   0.09605   -0.48109   0.85113   0.21049   0.09605   -0.48109   0.85113   0.21049   88.92212
1712   0.09614   -0.48204   0.85089   0.20923   0.09614   -0.48204   0.85089   0.20923   88.88550
1713   0.09612   -0.48164   0.85095   0.20975   0.09612   -0.48164   0.85095   0.20975   88.87329
1714   0.09608   -0.48195   0.85101   0.20933   0.09608   -0.48195   0.85101   0.20933   88.87634
1715   0.09596   -0.48268   0.85083   0.20783   0.09596   -0.48268   0.85083   0.20783   88.95874
1716   0.09603   -0.48079   0.85156   0.20972   0.09603   -0.48079   0.85156   0.20972   88.97705
1717   0.09605   -0.48112   0.85141   0.20911   0.09605   -0.48112   0.85141   0.20911   88.96179
1718   0.09588   -0.48045   0.85180   0.20933   0.09588   -0.48045   0.85180   0.20933   88.93127
1719   0.09572   -0.48067   0.85168   0.20969   0.09572   -0.48067   0.85168   0.20969   88.92212
1720   0.09603   -0.48170   0.85119   0.20942   0.09603   -0.48170   0.85119   0.20942   88.99536
1721   0.09623   -0.48170   0.85128   0.20841   0.09623   -0.48170   0.85128   0.20841   88.89465
1722   0.09611   -0.48225   0.85086   0.20859   0.09611   -0.48225   0.85086   0.20859   88.95874
1723   0.09605   -0.48076   0.85177   0.20856   0.09605   -0.48076   0.85177   0.20856   89.00757
1724   0.09606   -0.48143   0.85165   0.20786   0.09606   -0.48143   0.85165   0.20786   88.98926
1725   0.09609   -0.47960   0.85244   0.20896   0.09609   -0.47960   0.85244   0.20896   89.04114
1726   0.09605   -0.48061   0.85214   0.20750   0.09605   -0.48061   0.85214   0.20750   89.11438
1727   0.09611   -0.47932   0.85250   0.20914   0.09611   -0.47932   0.85250   0.20914   88.94653
1728   0.09598   -0.48079   0.85195   0.20820   0.09598   -0.48079   0.85195   0.20820   88.93433
1729   0.09600   -0.48027   0.85235   0.20768   0.09600   -0.48027   0.85235   0.20768   88.98315
1730   0.09602   -0.47917   0.85257   0.20908   0.09602   -0.47917   0.85257   0.20908   89.00452
1731   0.09611   -0.47996   0.85238   0.20826   0.09611   -0.47996   0.85238   0.20826   89.00452
1732   0.09608   -0.47914   0.85281   0.20832   0.09608   -0.47914   0.85281   0.20832   88.99231
1733   0.09605   -0.48000   0.85244   0.20737   0.09605   -0.48000   0.85244   0.20737   88.99841
1734   0.09608   -0.47957   0.85263   0.20786   0.09608   -0.47957   0.85263   0.20786   89.11743
1735   0.09621   -0.48106   0.85171   0.20826   0.09621   -0.48106   0.85171   0.20826   88.96790
1736   0.09625   -0.48125   0.85205   0.20621   0.09625   -0.48125   0.85205   0.20621   88.96484
1737   0.09615   -0.47975   0.85278   0.20728   0.09615   -0.47975   0.85278   0.20728   89.07776
1738   0.09620   -0.48024   0.85278   0.20554   0.09620   -0.48024   0.85278   0.20554   89.07166
1739   0.09619   -0.48012   0.85214   0.20835   0.09619   -0.48012   0.85214   0.20835   88.94653
1740   0.09614   -0.48091   0.85217   0.20692   0.09614   -0.48091   0.85217   0.20692   88.98926
1741   0.09598   -0.48064   0.85226   0.20682   0.09598   -0.48064   0.85226   0.20682   89.07471
1742   0.09616   -0.47807   0.85354   0.20801   0.09616   -0.47807   0.85354   0.20801   89.05945
1743   0.09615   -0.48039   0.85296   0.20463   0.09615   -0.48039   0.85296   0.20463   89.11438
1744   0.09611   -0.47896   0.85336   0.20621   0.09611   -0.47896   0.85336   0.20621   89.10828
1745   0.09604   -0.48079   0.85250   0.20582   0.09604   -0.48079   0.85250   0.20582   89.14795
1746   0.09618   -0.47899   0.85226   0.21070   0.09618   -0.47899   0.85226   0.21070   88.87939
1747   0.09621   -0.47908   0.85333   0.20624   0.09621   -0.47908   0.85333   0.20624   89.03503
1748   0.09612   -0.47981   0.85272   0.20710   0.09612   -0.47981   0.85272   0.20710   89.12964
1749   0.09616   -0.47929   0.85293   0.20740   0.09616   -0.47929   0.85293   0.20740   89.01062
1750   0.09615   -0.47893   0.85311   0.20783   0.09615   -0.47893   0.85311   0.20783   89.00146
1751   0.09616   -0.48021   0.85238   0.20707   0.09616   -0.48021   0.85238   0.20707   89.05029
1752   0.09610   -0.47954   0.85281   0.20719   0.09610   -0.47954   0.85281   0.20719   89.02283
1753   0.09607   -0.47810   0.85366   0.20756   0.09607   -0.47810   0.85366   0.20756   89.10522
1754   0.09603   -0.47789   0.85376   0.20704   0.09603   -0.47789   0.85376   0.20704   89.08997
1755   0.09614   -0.47755   0.85400   0.20722   0.09614   -0.47755   0.85400   0.20722   88.99841
1756   0.09606   -0.47761   0.85403   0.20667   0.09606   -0.47761   0.85403   0.20667   89.10522
1757   0.09608   -0.47914   0.85321   0.20649   0.09608   -0.47914   0.85321   0.20649   89.11743
1758   0.09612   -0.47801   0.85363   0.20771   0.09612   -0.47801   0.85363   0.20771   89.03503
1759   0.09614   -0.47829   0.85333   0.20811   0.09614   -0.47829   0.85333   0.20811   88.99841
1760   0.09611   -0.47707   0.85427   0.20713   0.09611   -0.47707   0.85427   0.20713   89.08997
1761   0.09616   -0.47661   0.85446   0.20722   0.09616   -0.47661   0.85446   0.20722   89.13574
1762   0.09616   -0.47700   0.85430   0.20725   0.09616   -0.47700   0.85430   0.20725   89.06860
1763   0.09615   -0.47761   0.85409   0.20624   0.09615   -0.47761   0.85409   0.20624   89.05640
1764   0.09616   -0.47743   0.85418   0.20661   0.09616   -0.47743   0.85418   0.20661   89.06860
1765   0.09616   -0.47520   0.85473   0.20911   0.09616   -0.47520   0.85473   0.20911   88.98315
1766   0.09609   -0.47484   0.85559   0.20688   0.09609   -0.47484   0.85559   0.20688   89.08997
1767   0.09602   -0.47719   0.85427   0.20667   0.09602   -0.47719   0.85427   0.20667   89.06250
1768   0.09610   -0.47606   0.85461   0.20759   0.09610   -0.47606   0.85461   0.20759   89.08997
1769   0.09612   -0.47627   0.85455   0.20789   0.09612   -0.47627   0.85455   0.20789   89.04419
1770   0.09614   -0.47572   0.85498   0.20682   0.09614   -0.47572   0.85498   0.20682   89.03809
1771   0.09609   -0.47612   0.85482   0.20740   0.09609   -0.47612   0.85482   0.20740   89.11743
1772   0.09619   -0.47514   0.85525   0.20774   0.09619   -0.47514   0.85525   0.20774   89.08997
1773   0.09623   -0.47465   0.85562   0.20710   0.09623   -0.47465   0.85562   0.20710   89.03809
1774   0.09614   -0.47566   0.85501   0.20719   0.09614   -0.47566   0.85501   0.20719   89.14185
1775   0.09616   -0.47496   0.85553   0.20670   0.09616   -0.47496   0.85553   0.20670   89.16321
1776   0.09629   -0.47487   0.85534   0.20731   0.09629   -0.47487   0.85534   0.20731   89.03503
1777   0.09623   -0.47578   0.85485   0.20750   0.09623   -0.47578   0.85485   0.20750   89.06555
1778   0.09613   -0.47502   0.85549   0.20670   0.09613   -0.47502   0.85549   0.20670   89.07471
1779   0.09605   -0.47453   0.85546   0.20765   0.09605   -0.47453   0.85546   0.20765   89.12048
1780   0.09613   -0.47465   0.85543   0.20777   0.09613   -0.47465   0.85543   0.20777   89.04419
1781   0.09615   -0.47502   0.85522   0.20725   0.09615   -0.47502   0.85522   0.20725   89.04724
1782   0.09608   -0.47432   0.85577   0.20713   0.09608   -0.47432   0.85577   0.20713   89.16321
1783   0.09611   -0.47578   0.85488   0.20710   0.09611   -0.47578   0.85488   0.20710   89.10828
1784   0.09622   -0.47349   0.85574   0.20930   0.09622   -0.47349   0.85574   0.20930   89.03503
1785   0.09619   -0.47563   0.85495   0.20753   0.09619   -0.47563   0.85495   0.20753   89.06250
1786   0.09612   -0.47401   0.85607   0.20655   0.09612   -0.47401   0.85607   0.20655   89.19678
1787   0.09624   -0.47426   0.85586   0.20661   0.09624   -0.47426   0.85586   0.20661   89.11438
1788   0.09624   -0.47606   0.85501   0.20615   0.09624   -0.47606   0.85501   0.20615   89.05640
1789   0.09621   -0.47581   0.85507   0.20658   0.09621   -0.47581   0.85507   0.20658   89.08386
1790   0.09615   -0.47490   0.85568   0.20631   0.09615   -0.47490   0.85568   0.20631   89.20898
1791   0.09613   -0.47621   0.85513   0.20560   0.09613   -0.47621   0.85513   0.20560   89.16931
1792   0.09614   -0.47435   0.85568   0.20762   0.09614   -0.47435   0.85568   0.20762   88.94348
1793   0.09605   -0.47545   0.85516   0.20692   0.09605   -0.47545   0.85516   0.20692   89.20593
1794   0.09607   -0.47484   0.85559   0.20685   0.09607   -0.47484   0.85559   0.20685   89.17236
1795   0.09616   -0.47465   0.85574   0.20658   0.09616   -0.47465   0.85574   0.20658   89.10522
1796   0.09618   -0.47383   0.85601   0.20710   0.09618   -0.47383   0.85601   0.20710   89.07166
1797   0.09615   -0.47472   0.85540   0.20716   0.09615   -0.47472   0.85540   0.20716   89.08691
1798   0.09616   -0.47523   0.85559   0.20600   0.09616   -0.47523   0.85559   0.20600   89.15405
1799   0.09619   -0.47441   0.85595   0.20606   0.09619   -0.47441   0.85595   0.20606   89.14795
1800   0.09616   -0.47392   0.85617   0.20627   0.09616   -0.47392   0.85617   0.20627   89.12659
1801   0.09596   -0.47426   0.85601   0.20618   0.09596   -0.47426   0.85601   0.20618   89.12048
1802   0.09611   -0.47295   0.85641   0.20740   0.09611   -0.47295   0.85641   0.20740   89.12048
1803   0.09624   -0.47389   0.85604   0.20688   0.09624   -0.47389   0.85604   0.20688   89.09607
1804   0.09620   -0.47459   0.85568   0.20695   0.09620   -0.47459   0.85568   0.20695   89.08997
1805   0.09607   -0.47401   0.85611   0.20624   0.09607   -0.47401   0.85611   0.20624   89.12354
1806   0.09614   -0.47368   0.85623   0.20692   0.09614   -0.47368   0.85623   0.20692   89.10217
1807   0.09613   -0.47267   0.85675   0.20722   0.09613   -0.47267   0.85675   0.20722   89.11133
1808   0.09619   -0.47255   0.85681   0.20692   0.09619   -0.47255   0.85681   0.20692   89.08997
1809   0.09617   -0.47261   0.85650   0.20771   0.09617   -0.47261   0.85650   0.20771   89.12659
1810   0.09630   -0.47285   0.85644   0.20740   0.09630   -0.47285   0.85644   0.20740   88.98926
1811   0.09622   -0.47301   0.85641   0.20731   0.09622   -0.47301   0.85641   0.20731   89.09302
1812   0.09624   -0.47151   0.85733   0.20716   0.09624   -0.47151   0.85733   0.20716   89.09607
1813   0.09620   -0.47151   0.85748   0.20643   0.09620   -0.47151   0.85748   0.20643   89.24255
1814   0.09622   -0.47279   0.85662   0.20685   0.09622   -0.47279   0.85662   0.20685   89.11133
1815   0.09622   -0.47307   0.85699   0.20484   0.09622   -0.47307   0.85699   0.20484   89.19678
1816   0.09618   -0.47282   0.85705   0.20511   0.09618   -0.47282   0.85705   0.20511   89.13574
1817   0.09619   -0.47240   0.85696   0.20664   0.09619   -0.47240   0.85696   0.20664   89.07166
1818   0.09619   -0.47163   0.85754   0.20591   0.09619   -0.47163   0.85754   0.20591   89.10828
1819   0.09632   -0.47203   0.85693   0.20743   0.09632   -0.47203   0.85693   0.20743   89.09607
1820   0.09613   -0.47304   0.85665   0.20634   0.09613   -0.47304   0.85665   0.20634   89.16931
1821   0.09604   -0.47203   0.85742   0.20563   0.09604   -0.47203   0.85742   0.20563   89.17847
1822   0.09614   -0.47255   0.85684   0.20640   0.09614   -0.47255   0.85684   0.20640   89.04724
1823   0.09626   -0.47233   0.85708   0.20597   0.09626   -0.47233   0.85708   0.20597   89.16321
1824   0.09626   -0.47179   0.85760   0.20505   0.09626   -0.47179   0.85760   0.20505   89.26086
1825   0.09627   -0.47337   0.85696   0.20411   0.09627   -0.47337   0.85696   0.20411   89.27002
1826   0.09623   -0.47273   0.85693   0.20582   0.09623   -0.47273   0.85693   0.20582   89.09607
1827   0.09614   -0.47252   0.85708   0.20600   0.09614   -0.47252   0.85708   0.20600   89.16016
1828   0.09621   -0.47197   0.85714   0.20661   0.09621   -0.47197   0.85714   0.20661   89.16016
1829   0.09626   -0.47270   0.85714   0.20511   0.09626   -0.47270   0.85714   0.20511   89.14490
1830   0.09615   -0.47227   0.85723   0.20585   0.09615   -0.47227   0.85723   0.20585   89.11438
1831   0.09603   -0.47285   0.85717   0.20457   0.09603   -0.47285   0.85717   0.20457   89.27307
1832   0.09613   -0.47411   0.85653   0.20475   0.09613   -0.47411   0.85653   0.20475   89.17847
1833   0.09618   -0.47279   0.85678   0.20618   0.09618   -0.47279   0.85678   0.20618   89.04114
1834   0.09614   -0.47249   0.85711   0.20612   0.09614   -0.47249   0.85711   0.20612   89.19067
1835   0.09614   -0.47316   0.85717   0.20429   0.09614   -0.47316   0.85717   0.20429   89.20898
1836   0.09627   -0.47395   0.85647   0.20505   0.09627   -0.47395   0.85647   0.20505   89.25171
1837   0.09626   -0.47389   0.85665   0.20454   0.09626   -0.47389   0.85665   0.20454   89.20288
1838   0.09608   -0.47279   0.85717   0.20499   0.09608   -0.47279   0.85717   0.20499   89.07776
1839   0.09599   -0.47398   0.85656   0.20429   0.09599   -0.47398   0.85656   0.20429   89.28833
1840   0.09619   -0.47481   0.85598   0.20533   0.09619   -0.47481   0.85598   0.20533   89.22424
1841   0.09622   -0.47285   0.85702   0.20551   0.09622   -0.47285   0.85702   0.20551   89.17847
1842   0.09612   -0.47273   0.85711   0.20530   0.09612   -0.47273   0.85711   0.20530   89.12964
1843   0.09600   -0.47221   0.85684   0.20759   0.09600   -0.47221   0.85684   0.20759   89.04114
1844   0.09608   -0.47179   0.85745   0.20615   0.09608   -0.47179   0.85745   0.20615   89.09607
1845   0.09615   -0.47209   0.85751   0.20484   0.09615   -0.47209   0.85751   0.20484   89.09607
1846   0.09614   -0.47157   0.85717   0.20743   0.09614   -0.47157   0.85717   0.20743   89.04724
1847   0.09616   -0.47127   0.85730   0.20783   0.09616   -0.47127   0.85730   0.20783   89.04114
1848   0.09609   -0.47493   0.85614   0.20438   0.09609   -0.47493   0.85614   0.20438   89.23035
1849   0.09614   -0.47249   0.85687   0.20661   0.09614   -0.47249   0.85687   0.20661   89.12354
1850   0.09614   -0.47182   0.85788   0.20423   0.09614   -0.47182   0.85788   0.20423   89.24561
1851   0.09621   -0.47276   0.85730   0.20432   0.09621   -0.47276   0.85730   0.20432   89.24561
1852   0.09617   -0.47362   0.85708   0.20331   0.09617   -0.47362   0.85708   0.20331   89.29749
1853   0.09617   -0.47414   0.85665   0.20359   0.09617   -0.47414   0.85665   0.20359   89.23950
1854   0.09613   -0.47566   0.85592   0.20374   0.09613   -0.47566   0.85592   0.20374   89.18762
1855   0.09614   -0.47517   0.85595   0.20454   0.09614   -0.47517   0.85595   0.20454   89.20898
1856   0.09605   -0.47429   0.85607   0.20594   0.09605   -0.47429   0.85607   0.20594   89.12354
1857   0.09605   -0.47359   0.85641   0.20585   0.09605   -0.47359   0.85641   0.20585   89.14185
1858   0.09607   -0.47383   0.85656   0.20481   0.09607   -0.47383   0.85656   0.20481   89.27612
1859   0.09618   -0.47349   0.85647   0.20588   0.09618   -0.47349   0.85647   0.20588   89.08997
1860   0.09613   -0.47404   0.85626   0.20603   0.09613   -0.47404   0.85626   0.20603   89.18762
1861   0.09609   -0.47505   0.85604   0.20380   0.09609   -0.47505   0.85604   0.20380   89.28833
1862   0.09619   -0.47285   0.85693   0.20576   0.09619   -0.47285   0.85693   0.20576   89.19373
1863   0.09623   -0.47301   0.85699   0.20551   0.09623   -0.47301   0.85699   0.20551   89.15100
1864   0.09617   -0.47322   0.85696   0.20460   0.09617   -0.47322   0.85696   0.20460   89.25171
1865   0.09613   -0.47453   0.85650   0.20359   0.09613   -0.47453   0.85650   0.20359   89.28223
1866   0.09622   -0.47438   0.85629   0.20499   0.09622   -0.47438   0.85629   0.20499   89.24561
1867   0.09619   -0.47526   0.85604   0.20389   0.09619   -0.47526   0.85604   0.20389   89.20593
1868   0.09614   -0.47356   0.85675   0.20463   0.09614   -0.47356   0.85675   0.20463   89.18152
1869   0.09598   -0.47398   0.85656   0.20450   0.09598   -0.47398   0.85656   0.20450   89.34326
1870   0.09612   -0.47343   0.85675   0.20487   0.09612   -0.47343   0.85675   0.20487   89.27307
1871   0.09613   -0.47438   0.85647   0.20435   0.09613   -0.47438   0.85647   0.20435   89.18762
1872   0.09609   -0.47310   0.85742   0.20283   0.09609   -0.47310   0.85742   0.20283   89.30664
1873   0.09612   -0.47362   0.85690   0.20414   0.09612   -0.47362   0.85690   0.20414   89.28223
1874   0.09618   -0.47438   0.85672   0.20301   0.09618   -0.47438   0.85672   0.20301   89.28833
1875   0.09615   -0.47441   0.85711   0.20136   0.09615   -0.47441   0.85711   0.20136   89.37073
1876   0.09609   -0.47426   0.85705   0.20164   0.09609   -0.47426   0.85705   0.20164   89.44092
1877   0.09615   -0.47560   0.85650   0.20109   0.09615   -0.47560   0.85650   0.20109   89.45618
1878   0.09618   -0.47465   0.85665   0.20280   0.09618   -0.47465   0.85665   0.20280   89.33716
1879   0.09615   -0.47407   0.85681   0.20301   0.09615   -0.47407   0.85681   0.20301   89.36157
1880   0.09613   -0.47285   0.85708   0.20524   0.09613   -0.47285   0.85708   0.20524   89.18762
1881   0.09611   -0.47331   0.85669   0.20542   0.09611   -0.47331   0.85669   0.20542   89.18457
1882   0.09611   -0.47176   0.85726   0.20701   0.09611   -0.47176   0.85726   0.20701   89.02283
1883   0.09614   -0.47328   0.85672   0.20542   0.09614   -0.47328   0.85672   0.20542   89.16016
1884   0.09601   -0.47478   0.85614   0.20444   0.09601   -0.47478   0.85614   0.20444   89.37378
1885   0.09614   -0.47346   0.85675   0.20484   0.09614   -0.47346   0.85675   0.20484   89.19983
1886   0.09612   -0.47404   0.85678   0.20347   0.09612   -0.47404   0.85678   0.20347   89.26392
1887   0.09618   -0.47227   0.85708   0.20624   0.09618   -0.47227   0.85708   0.20624   89.08997
1888   0.09614   -0.47438   0.85665   0.20359   0.09614   -0.47438   0.85665   0.20359   89.28528
1889   0.09621   -0.47487   0.85614   0.20435   0.09621   -0.47487   0.85614   0.20435   89.11133
1890   0.09614   -0.47365   0.85635   0.20658   0.09614   -0.47365   0.85635   0.20658   89.16016
1891   0.09617   -0.47273   0.85714   0.20508   0.09617   -0.47273   0.85714   0.20508   89.18457
1892   0.09621   -0.47285   0.85687   0.20566   0.09621   -0.47285   0.85687   0.20566   89.18762
1893   0.09615   -0.47523   0.85577   0.20505   0.09615   -0.47523   0.85577   0.20505   89.23035
1894   0.09609   -0.47502   0.85617   0.20411   0.09609   -0.47502   0.85617   0.20411   89.17542
1895   0.09598   -0.47353   0.85693   0.20402   0.09598   -0.47353   0.85693   0.20402   89.32495
1896   0.09608   -0.47481   0.85623   0.20405   0.09608   -0.47481   0.85623   0.20405   89.27917
1897   0.09608   -0.47475   0.85617   0.20420   0.09608   -0.47475   0.85617   0.20420   89.23035
1898   0.09607   -0.47484   0.85644   0.20322   0.09607   -0.47484   0.85644   0.20322   89.23950
1899   0.09606   -0.47536   0.85568   0.20518   0.09606   -0.47536   0.85568   0.20518   89.23645
1900   0.09623   -0.47343   0.85687   0.20499   0.09623   -0.47343   0.85687   0.20499   89.15100
1901   0.09624   -0.47517   0.85586   0.20441   0.09624   -0.47517   0.85586   0.20441   89.19983
1902   0.09626   -0.47420   0.85638   0.20511   0.09626   -0.47420   0.85638   0.20511   89.14490
1903   0.09618   -0.47475   0.85632   0.20356   0.09618   -0.47475   0.85632   0.20356   89.33716
1904   0.09623   -0.47401   0.85614   0.20624   0.09623   -0.47401   0.85614   0.20624   89.15100
1905   0.09616   -0.47456   0.85617   0.20493   0.09616   -0.47456   0.85617   0.20493   89.14490
1906   0.09605   -0.47554   0.85571   0.20447   0.09605   -0.47554   0.85571   0.20447   89.30359
1907   0.09604   -0.47530   0.85568   0.20542   0.09604   -0.47530   0.85568   0.20542   89.22424
1908   0.09609   -0.47432   0.85623   0.20551   0.09609   -0.47432   0.85623   0.20551   89.13574
1909   0.09604   -0.47526   0.85586   0.20450   0.09604   -0.47526   0.85586   0.20450   89.33105
1910   0.09603   -0.47398   0.85647   0.20508   0.09603   -0.47398   0.85647   0.20508   89.22424
1911   0.09609   -0.47533   0.85592   0.20426   0.09609   -0.47533   0.85592   0.20426   89.23950
1912   0.09617   -0.47484   0.85607   0.20454   0.09617   -0.47484   0.85607   0.20454   89.10828
1913   0.09614   -0.47520   0.85604   0.20399   0.09614   -0.47520   0.85604   0.20399   89.17847
1914   0.09605   -0.47496   0.85632   0.20347   0.09605   -0.47496   0.85632   0.20347   89.26697
1915   0.09618   -0.47441   0.85614   0.20502   0.09618   -0.47441   0.85614   0.20502   89.17542
1916   0.09619   -0.47536   0.85583   0.20411   0.09619   -0.47536   0.85583   0.20411   89.18457
1917   0.09613   -0.47533   0.85568   0.20493   0.09613   -0.47533   0.85568   0.20493   89.21509
1918   0.09593   -0.47563   0.85580   0.20392   0.09593   -0.47563   0.85580   0.20392   89.26086
1919   0.09582   -0.47624   0.85559   0.20365   0.09582   -0.47624   0.85559   0.20365   89.12659
1920   0.09597   -0.47481   0.85598   0.20508   0.09597   -0.47481   0.85598   0.20508   89.19067
1921   0.09610   -0.47560   0.85577   0.20447   0.09610   -0.47560   0.85577   0.20447   89.18457
1922   0.09606   -0.47450   0.85635   0.20450   0.09606   -0.47450   0.85635   0.20450   89.28528
1923   0.09600   -0.47603   0.85516   0.20545   0.09600   -0.47603   0.85516   0.20545   89.12659
1924   0.09601   -0.47490   0.85565   0.20609   0.09601   -0.47490   0.85565   0.20609   89.12659
1925   0.09604   -0.47533   0.85553   0.20582   0.09604   -0.47533   0.85553   0.20582   89.16931
1926   0.09614   -0.47362   0.85614   0.20722   0.09614   -0.47362   0.85614   0.20722   89.18762
1927   0.09613   -0.47575   0.85513   0.20606   0.09613   -0.47575   0.85513   0.20606   89.13879
1928   0.09614   -0.47420   0.85601   0.20631   0.09614   -0.47420   0.85601   0.20631   89.06555
1929   0.09607   -0.47493   0.85580   0.20545   0.09607   -0.47493   0.85580   0.20545   89.16321
1930   0.09614   -0.47539   0.85580   0.20450   0.09614   -0.47539   0.85580   0.20450   89.31274
1931   0.09613   -0.47511   0.85559   0.20597   0.09613   -0.47511   0.85559   0.20597   89.15100
1932   0.09608   -0.47578   0.85485   0.20756   0.09608   -0.47578   0.85485   0.20756   89.00146
1933   0.09594   -0.47725   0.85446   0.20557   0.09594   -0.47725   0.85446   0.20557   89.18762
1934   0.09610   -0.47575   0.85510   0.20664   0.09610   -0.47575   0.85510   0.20664   89.01367
1935   0.09605   -0.47523   0.85540   0.20652   0.09605   -0.47523   0.85540   0.20652   89.16016
1936   0.09610   -0.47609   0.85504   0.20597   0.09610   -0.47609   0.85504   0.20597   89.16626
1937   0.09625   -0.47432   0.85592   0.20615   0.09625   -0.47432   0.85592   0.20615   89.03809
1938   0.09618   -0.47496   0.85583   0.20536   0.09618   -0.47496   0.85583   0.20536   89.12659
1939   0.09614   -0.47542   0.85559   0.20527   0.09614   -0.47542   0.85559   0.20527   89.18762
1940   0.09616   -0.47539   0.85565   0.20545   0.09616   -0.47539   0.85565   0.20545   89.12659
1941   0.09626   -0.47554   0.85540   0.20563   0.09626   -0.47554   0.85540   0.20563   89.13574
1942   0.09623   -0.47563   0.85556   0.20518   0.09623   -0.47563   0.85556   0.20518   89.16016
1943   0.09614   -0.47707   0.85461   0.20539   0.09614   -0.47707   0.85461   0.20539   89.23645
1944   0.09608   -0.47536   0.85556   0.20533   0.09608   -0.47536   0.85556   0.20533   89.23950
1945   0.09612   -0.47761   0.85409   0.20621   0.09612   -0.47761   0.85409   0.20621   89.09302
1946   0.09603   -0.47600   0.85513   0.20554   0.09603   -0.47600   0.85513   0.20554   89.16626
1947   0.09605   -0.47575   0.85543   0.20554   0.09605   -0.47575   0.85543   0.20554   89.16931
1948   0.09598   -0.47679   0.85501   0.20466   0.09598   -0.47679   0.85501   0.20466   89.28528
1949   0.09613   -0.47740   0.85430   0.20597   0.09613   -0.47740   0.85430   0.20597   89.15100
1950   0.09610   -0.47578   0.85537   0.20551   0.09610   -0.47578   0.85537   0.20551   89.13574
1951   0.09605   -0.47783   0.85488   0.20270   0.09605   -0.47783   0.85488   0.20270   89.28223
1952   0.09608   -0.47816   0.85485   0.20231   0.09608   -0.47816   0.85485   0.20231   89.28833
1953   0.09620   -0.47621   0.85562   0.20338   0.09620   -0.47621   0.85562   0.20338   89.21509
1954   0.09613   -0.47743   0.85452   0.20521   0.09613   -0.47743   0.85452   0.20521   89.16931
1955   0.09605   -0.47771   0.85412   0.20579   0.09605   -0.47771   0.85412   0.20579   89.18762
1956   0.09612   -0.47856   0.85354   0.20609   0.09612   -0.47856   0.85354   0.20609   89.08081
1957   0.09613   -0.47688   0.85424   0.20756   0.09613   -0.47688   0.85424   0.20756   89.02588
1958   0.09601   -0.47871   0.85366   0.20563   0.09601   -0.47871   0.85366   0.20563   89.16626
1959   0.09591   -0.47896   0.85336   0.20609   0.09591   -0.47896   0.85336   0.20609   89.16321
1960   0.09605   -0.47945   0.85311   0.20603   0.09605   -0.47945   0.85311   0.20603   89.10217
1961   0.09601   -0.47984   0.85296   0.20603   0.09601   -0.47984   0.85296   0.20603   89.13574
1962   0.09600   -0.47954   0.85311   0.20548   0.09600   -0.47954   0.85311   0.20548   89.14490
1963   0.09602   -0.48021   0.85308   0.20478   0.09602   -0.48021   0.85308   0.20478   89.21509
1964   0.09610   -0.47893   0.85296   0.20804   0.09610   -0.47893   0.85296   0.20804   89.09912
1965   0.09611   -0.48082   0.85266   0.20463   0.09611   -0.48082   0.85266   0.20463   89.05334
1966   0.09605   -0.47884   0.85342   0.20673   0.09605   -0.47884   0.85342   0.20673   89.16016
1967   0.09611   -0.47908   0.85287   0.20847   0.09611   -0.47908   0.85287   0.20847   89.01367
1968   0.09614   -0.47887   0.85339   0.20655   0.09614   -0.47887   0.85339   0.20655   89.00757
1969   0.09613   -0.47798   0.85351   0.20774   0.09613   -0.47798   0.85351   0.20774   89.04419
1970   0.09604   -0.47951   0.85324   0.20530   0.09604   -0.47951   0.85324   0.20530   89.17847
1971   0.09598   -0.47853   0.85357   0.20682   0.09598   -0.47853   0.85357   0.20682   89.12354
1972   0.09598   -0.47853   0.85333   0.20716   0.09598   -0.47853   0.85333   0.20716   89.07471
1973   0.09601   -0.47932   0.85296   0.20731   0.09601   -0.47932   0.85296   0.20731   89.08997
1974   0.09600   -0.47975   0.85272   0.20692   0.09600   -0.47975   0.85272   0.20692   89.07776
1975   0.09604   -0.47993   0.85253   0.20756   0.09604   -0.47993   0.85253   0.20756   89.09302
1976   0.09606   -0.47893   0.85321   0.20673   0.09606   -0.47893   0.85321   0.20673   89.07471
1977   0.09604   -0.48054   0.85257   0.20634   0.09604   -0.48054   0.85257   0.20634   89.12048
1978   0.09609   -0.47893   0.85305   0.20814   0.09609   -0.47893   0.85305   0.20814   89.02283
1979   0.09612   -0.48061   0.85247   0.20661   0.09612   -0.48061   0.85247   0.20661   89.09302
1980   0.09608   -0.47984   0.85260   0.20743   0.09608   -0.47984   0.85260   0.20743   89.09607
1981   0.09605   -0.48097   0.85195   0.20728   0.09605   -0.48097   0.85195   0.20728   89.08386
1982   0.09610   -0.47963   0.85266   0.20756   0.09610   -0.47963   0.85266   0.20756   89.12659
1983   0.09610   -0.48012   0.85229   0.20804   0.09610   -0.48012   0.85229   0.20804   89.03198
1984   0.09595   -0.47990   0.85250   0.20774   0.09595   -0.47990   0.85250   0.20774   89.03503
1985   0.09597   -0.48152   0.85192   0.20643   0.09597   -0.48152   0.85192   0.20643   89.05640
1986   0.09601   -0.48045   0.85232   0.20722   0.09601   -0.48045   0.85232   0.20722   89.07776
1987   0.09605   -0.48018   0.85238   0.20746   0.09605   -0.48018   0.85238   0.20746   89.00757
1988   0.09600   -0.48183   0.85189   0.20563   0.09600   -0.48183   0.85189   0.20563   89.08691
1989   0.09602   -0.48122   0.85177   0.20762   0.09602   -0.48122   0.85177   0.20762   89.00452
1990   0.09612   -0.47978   0.85223   0.20911   0.09612   -0.47978   0.85223   0.20911   88.98621
1991   0.09611   -0.48082   0.85202   0.20759   0.09611   -0.48082   0.85202   0.20759   88.97705
1992   0.09607   -0.47887   0.85296   0.20826   0.09607   -0.47887   0.85296   0.20826   89.06860
1993   0.09606   -0.47874   0.85247   0.21049   0.09606   -0.47874   0.85247   0.21049   88.92212
1994   0.09617   -0.47914   0.85253   0.20948   0.09617   -0.47914   0.85253   0.20948   88.96484
1995   0.09613   -0.48051   0.85202   0.20804   0.09613   -0.48051   0.85202   0.20804   88.93127
1996   0.09601   -0.48003   0.85235   0.20804   0.09601   -0.48003   0.85235   0.20804   89.02283
1997   0.09593   -0.48100   0.85147   0.20911   0.09593   -0.48100   0.85147   0.20911   88.97400
1998   0.09605   -0.48027   0.85186   0.20914   0.09605   -0.48027   0.85186   0.20914   88.92212
1999   0.09601   -0.48128   0.85171   0.20777   0.09601   -0.48128   0.85171   0.20777   88.98315
2000   0.09592   -0.48177   0.85147   0.20765   0.09592   -0.48177   0.85147   0.20765   89.03198
