Sampling rate: 10000.000 samples/sec
Screen size: 2000 samples
DOP average: 1 SOPsamples
Start time: 15:57:30 5/20/2021
Interval: 0.000100000 sec
(Waveform type: 1,3,4,5)
Index      S0(mW)      S1      S2      S3      S0(mW)      S1      S2      S3      DOP
1   0.05900   0.01090   0.00879   1.00000   0.05900   0.01090   0.00879   1.00000   60.42786
2   0.05899   0.01019   0.01126   1.00000   0.05899   0.01019   0.01126   1.00000   60.54382
3   0.05908   0.00934   0.01016   1.00000   0.05908   0.00934   0.01016   1.00000   60.45227
4   0.05907   0.00793   0.00952   1.00000   0.05907   0.00793   0.00952   1.00000   60.44617
5   0.05900   0.00861   0.01028   1.00000   0.05900   0.00861   0.01028   1.00000   60.42786
6   0.05904   0.00974   0.01105   1.00000   0.05904   0.00974   0.01105   1.00000   60.48279
7   0.05910   0.00925   0.01065   1.00000   0.05910   0.00925   0.01065   1.00000   60.33936
8   0.05905   0.00949   0.01068   1.00000   0.05905   0.00949   0.01068   1.00000   60.45837
9   0.05888   0.00894   0.00925   1.00000   0.05888   0.00894   0.00925   1.00000   60.47058
10   0.05898   0.00916   0.01068   1.00000   0.05898   0.00916   0.01068   1.00000   60.50720
11   0.05902   0.00864   0.01285   1.00000   0.05902   0.00864   0.01285   1.00000   60.48584
12   0.05905   0.01019   0.01141   1.00000   0.05905   0.01019   0.01141   1.00000   60.36377
13   0.05897   0.00934   0.01184   1.00000   0.05897   0.00934   0.01184   1.00000   60.42480
14   0.05906   0.01080   0.01132   1.00000   0.05906   0.01080   0.01132   1.00000   60.53162
15   0.05910   0.01120   0.00958   1.00000   0.05910   0.01120   0.00958   1.00000   60.43091
16   0.05905   0.01007   0.01108   1.00000   0.05905   0.01007   0.01108   1.00000   60.48889
17   0.05902   0.00916   0.01099   1.00000   0.05902   0.00916   0.01099   1.00000   60.47058
18   0.05910   0.00925   0.01013   1.00000   0.05910   0.00925   0.01013   1.00000   60.49500
19   0.05908   0.00949   0.01035   1.00000   0.05908   0.00949   0.01035   1.00000   60.45227
20   0.05902   0.00943   0.00909   1.00000   0.05902   0.00943   0.00909   1.00000   60.36072
21   0.05896   0.00992   0.00772   1.00000   0.05896   0.00992   0.00772   1.00000   60.52551
22   0.05905   0.00986   0.01105   1.00000   0.05905   0.00986   0.01105   1.00000   60.39429
23   0.05904   0.00955   0.01038   1.00000   0.05904   0.00955   0.01038   1.00000   60.43701
24   0.05897   0.00781   0.01181   1.00000   0.05897   0.00781   0.01181   1.00000   60.44006
25   0.05904   0.00711   0.01025   1.00000   0.05904   0.00711   0.01025   1.00000   60.40344
26   0.05906   0.00888   0.01141   1.00000   0.05906   0.00888   0.01141   1.00000   60.47058
27   0.05905   0.00931   0.00729   1.00000   0.05905   0.00931   0.00729   1.00000   60.44312
28   0.05906   0.01025   0.00949   1.00000   0.05906   0.01025   0.00949   1.00000   60.44006
29   0.05908   0.00861   0.01105   1.00000   0.05908   0.00861   0.01105   1.00000   60.45227
30   0.05908   0.01059   0.00998   1.00000   0.05908   0.01059   0.00998   1.00000   60.51331
31   0.05902   0.00925   0.01035   1.00000   0.05902   0.00925   0.01035   1.00000   60.42480
32   0.05895   0.01001   0.01062   1.00000   0.05895   0.01001   0.01062   1.00000   60.51331
33   0.05883   0.00623   0.01267   1.00000   0.05883   0.00623   0.01267   1.00000   60.45532
34   0.05898   0.01111   0.01077   1.00000   0.05898   0.01111   0.01077   1.00000   60.40039
35   0.05905   0.01181   0.00790   1.00000   0.05905   0.01181   0.00790   1.00000   60.50415
36   0.05908   0.01083   0.00955   1.00000   0.05908   0.01083   0.00955   1.00000   60.48279
37   0.05908   0.00983   0.01117   1.00000   0.05908   0.00983   0.01117   1.00000   60.51331
38   0.05903   0.00870   0.00964   1.00000   0.05903   0.00870   0.00964   1.00000   60.39734
39   0.05903   0.00797   0.00876   1.00000   0.05903   0.00797   0.00876   1.00000   60.36682
40   0.05913   0.00980   0.00906   1.00000   0.05913   0.00980   0.00906   1.00000   60.52856
41   0.05917   0.01102   0.01080   1.00000   0.05917   0.01102   0.01080   1.00000   60.43396
42   0.05906   0.01077   0.00793   1.00000   0.05906   0.01077   0.00793   1.00000   60.39124
43   0.05900   0.00913   0.01019   1.00000   0.05900   0.00913   0.01019   1.00000   60.41260
44   0.05905   0.01099   0.01151   1.00000   0.05905   0.01099   0.01151   1.00000   60.50415
45   0.05905   0.01007   0.01010   1.00000   0.05905   0.01007   0.01010   1.00000   60.54077
46   0.05901   0.01138   0.00723   1.00000   0.05901   0.01138   0.00723   1.00000   60.40039
47   0.05898   0.01144   0.00885   1.00000   0.05898   0.01144   0.00885   1.00000   60.50720
48   0.05907   0.01117   0.01038   1.00000   0.05907   0.01117   0.01038   1.00000   60.55298
49   0.05912   0.00784   0.00900   1.00000   0.05912   0.00784   0.00900   1.00000   60.36682
50   0.05905   0.01077   0.00940   1.00000   0.05905   0.01077   0.00940   1.00000   60.44312
51   0.05903   0.00885   0.01141   1.00000   0.05903   0.00885   0.01141   1.00000   60.52246
52   0.05925   0.01090   0.00964   1.00000   0.05925   0.01090   0.00964   1.00000   60.40649
53   0.05919   0.01126   0.00906   1.00000   0.05919   0.01126   0.00906   1.00000   60.47668
54   0.05893   0.00684   0.00961   1.00000   0.05893   0.00684   0.00961   1.00000   60.50110
55   0.05896   0.00790   0.01022   1.00000   0.05896   0.00790   0.01022   1.00000   60.49500
56   0.05909   0.01071   0.01080   1.00000   0.05909   0.01071   0.01080   1.00000   60.47363
57   0.05914   0.00955   0.01001   1.00000   0.05914   0.00955   0.01001   1.00000   60.36377
58   0.05905   0.01007   0.00995   1.00000   0.05905   0.01007   0.00995   1.00000   60.42786
59   0.05902   0.01032   0.01144   1.00000   0.05902   0.01032   0.01144   1.00000   60.54688
60   0.05911   0.01065   0.01032   1.00000   0.05911   0.01065   0.01032   1.00000   60.42175
61   0.05910   0.01025   0.00916   1.00000   0.05910   0.01025   0.00916   1.00000   60.43091
62   0.05905   0.01105   0.00989   1.00000   0.05905   0.01105   0.00989   1.00000   60.55603
63   0.05910   0.01096   0.01050   1.00000   0.05910   0.01096   0.01050   1.00000   60.55603
64   0.05913   0.01157   0.01041   1.00000   0.05913   0.01157   0.01041   1.00000   60.44922
65   0.05911   0.01120   0.00958   1.00000   0.05911   0.01120   0.00958   1.00000   60.42175
66   0.05902   0.00903   0.01032   1.00000   0.05902   0.00903   0.01032   1.00000   60.59570
67   0.05906   0.00952   0.00970   1.00000   0.05906   0.00952   0.00970   1.00000   60.48584
68   0.05907   0.00861   0.01071   1.00000   0.05907   0.00861   0.01071   1.00000   60.47668
69   0.05910   0.01025   0.01202   1.00000   0.05910   0.01025   0.01202   1.00000   60.47974
70   0.05881   0.01038   0.00995   1.00000   0.05881   0.01038   0.00995   1.00000   60.51636
71   0.05894   0.01175   0.01166   1.00000   0.05894   0.01175   0.01166   1.00000   60.50720
72   0.05914   0.01120   0.01166   1.00000   0.05914   0.01120   0.01166   1.00000   60.39429
73   0.05908   0.01111   0.00879   1.00000   0.05908   0.01111   0.00879   1.00000   60.43396
74   0.05897   0.01212   0.01007   1.00000   0.05897   0.01212   0.01007   1.00000   60.56213
75   0.05906   0.01151   0.01028   1.00000   0.05906   0.01151   0.01028   1.00000   60.42175
76   0.05907   0.00992   0.00864   1.00000   0.05907   0.00992   0.00864   1.00000   60.36682
77   0.05905   0.00897   0.01254   1.00000   0.05905   0.00897   0.01254   1.00000   60.47363
78   0.05906   0.00858   0.01169   1.00000   0.05906   0.00858   0.01169   1.00000   60.44006
79   0.05905   0.00998   0.00882   1.00000   0.05905   0.00998   0.00882   1.00000   60.44312
80   0.05896   0.01181   0.00876   1.00000   0.05896   0.01181   0.00876   1.00000   60.38818
81   0.05899   0.00974   0.01172   1.00000   0.05899   0.00974   0.01172   1.00000   60.49805
82   0.05903   0.00851   0.01202   1.00000   0.05903   0.00851   0.01202   1.00000   60.50720
83   0.05905   0.01013   0.01141   1.00000   0.05905   0.01013   0.01141   1.00000   60.42786
84   0.05900   0.00983   0.00995   1.00000   0.05900   0.00983   0.00995   1.00000   60.39429
85   0.05903   0.00952   0.00909   1.00000   0.05903   0.00952   0.00909   1.00000   60.53772
86   0.05908   0.00845   0.01053   1.00000   0.05908   0.00845   0.01053   1.00000   60.48279
87   0.05905   0.01080   0.01053   1.00000   0.05905   0.01080   0.01053   1.00000   60.44922
88   0.05900   0.00946   0.00989   1.00000   0.05900   0.00946   0.00989   1.00000   60.44312
89   0.05910   0.01117   0.00958   1.00000   0.05910   0.01117   0.00958   1.00000   60.44922
90   0.05911   0.00925   0.01111   1.00000   0.05911   0.00925   0.01111   1.00000   60.42175
91   0.05899   0.00888   0.00919   1.00000   0.05899   0.00888   0.00919   1.00000   60.42175
92   0.05891   0.01135   0.01080   1.00000   0.05891   0.01135   0.01080   1.00000   60.51941
93   0.05905   0.01102   0.01151   1.00000   0.05905   0.01102   0.01151   1.00000   60.47974
94   0.05908   0.01080   0.01019   1.00000   0.05908   0.01080   0.01019   1.00000   60.45227
95   0.05901   0.01312   0.01080   1.00000   0.05901   0.01312   0.01080   1.00000   60.46448
96   0.05896   0.00751   0.01178   1.00000   0.05896   0.00751   0.01178   1.00000   60.44922
97   0.05910   0.00949   0.01035   1.00000   0.05910   0.00949   0.01035   1.00000   60.43091
98   0.05910   0.01028   0.01059   1.00000   0.05910   0.01028   0.01059   1.00000   60.43091
99   0.05905   0.01044   0.01001   1.00000   0.05905   0.01044   0.01001   1.00000   60.40955
100   0.05900   0.00870   0.00949   1.00000   0.05900   0.00870   0.00949   1.00000   60.54993
101   0.05911   0.01102   0.00940   1.00000   0.05911   0.01102   0.00940   1.00000   60.45532
102   0.05909   0.01126   0.01056   1.00000   0.05909   0.01126   0.01056   1.00000   60.33325
103   0.05898   0.00974   0.00946   1.00000   0.05898   0.00974   0.00946   1.00000   60.38208
104   0.05895   0.00986   0.01288   1.00000   0.05895   0.00986   0.01288   1.00000   60.48279
105   0.05905   0.01041   0.00934   1.00000   0.05905   0.01041   0.00934   1.00000   60.47363
106   0.05905   0.01035   0.00885   1.00000   0.05905   0.01035   0.00885   1.00000   60.42786
107   0.05898   0.00955   0.00977   1.00000   0.05898   0.00955   0.00977   1.00000   60.50720
108   0.05900   0.00855   0.01074   1.00000   0.05900   0.00855   0.01074   1.00000   60.56519
109   0.05905   0.01120   0.01248   1.00000   0.05905   0.01120   0.01248   1.00000   60.52551
110   0.05905   0.01016   0.01108   1.00000   0.05905   0.01016   0.01108   1.00000   60.41565
111   0.05902   0.01135   0.01093   1.00000   0.05902   0.01135   0.01093   1.00000   60.53162
112   0.05908   0.01144   0.01169   1.00000   0.05908   0.01144   0.01169   1.00000   60.49805
113   0.05907   0.00974   0.01199   1.00000   0.05907   0.00974   0.01199   1.00000   60.41260
114   0.05904   0.01209   0.00955   1.00000   0.05904   0.01209   0.00955   1.00000   60.45227
115   0.05897   0.01212   0.01248   1.00000   0.05897   0.01212   0.01248   1.00000   60.53162
116   0.05904   0.01187   0.01001   1.00000   0.05904   0.01187   0.01001   1.00000   60.43701
117   0.05900   0.00949   0.00958   1.00000   0.05900   0.00949   0.00958   1.00000   60.44312
118   0.05900   0.01169   0.00983   1.00000   0.05900   0.01169   0.00983   1.00000   60.50415
119   0.05901   0.00998   0.01138   1.00000   0.05901   0.00998   0.01138   1.00000   60.55603
120   0.05907   0.01010   0.01172   1.00000   0.05907   0.01010   0.01172   1.00000   60.39734
121   0.05904   0.01340   0.00906   1.00000   0.05904   0.01340   0.00906   1.00000   60.46753
122   0.05902   0.01138   0.01126   1.00000   0.05902   0.01138   0.01126   1.00000   60.48584
123   0.05908   0.01077   0.01163   1.00000   0.05908   0.01077   0.01163   1.00000   60.51331
124   0.05909   0.01108   0.01053   1.00000   0.05909   0.01108   0.01053   1.00000   60.45837
125   0.05904   0.01306   0.00903   1.00000   0.05904   0.01306   0.00903   1.00000   60.46753
126   0.05898   0.00839   0.01074   1.00000   0.05898   0.00839   0.01074   1.00000   60.44617
127   0.05902   0.01147   0.01093   1.00000   0.05902   0.01147   0.01093   1.00000   60.45532
128   0.05902   0.01083   0.00974   1.00000   0.05902   0.01083   0.00974   1.00000   60.37598
129   0.05895   0.01282   0.00903   1.00000   0.05895   0.01282   0.00903   1.00000   60.47363
130   0.05900   0.01007   0.00998   1.00000   0.05900   0.01007   0.00998   1.00000   60.45837
131   0.05908   0.01190   0.00983   1.00000   0.05908   0.01190   0.00983   1.00000   60.52856
132   0.05907   0.01138   0.01044   1.00000   0.05907   0.01138   0.01044   1.00000   60.38208
133   0.05902   0.00986   0.01187   1.00000   0.05902   0.00986   0.01187   1.00000   60.50110
134   0.05912   0.01041   0.01090   1.00000   0.05912   0.01041   0.01090   1.00000   60.55298
135   0.05911   0.01181   0.00821   1.00000   0.05911   0.01181   0.00821   1.00000   60.43701
136   0.05901   0.00998   0.00882   1.00000   0.05901   0.00998   0.00882   1.00000   60.47974
137   0.05898   0.00995   0.01126   1.00000   0.05898   0.00995   0.01126   1.00000   60.49194
138   0.05904   0.00949   0.01215   1.00000   0.05904   0.00949   0.01215   1.00000   60.48279
139   0.05897   0.01019   0.01193   1.00000   0.05897   0.01019   0.01193   1.00000   60.51636
140   0.05901   0.01077   0.00894   1.00000   0.05901   0.01077   0.00894   1.00000   60.35461
141   0.05895   0.01105   0.01108   1.00000   0.05895   0.01105   0.01108   1.00000   60.45227
142   0.05904   0.01044   0.01114   1.00000   0.05904   0.01044   0.01114   1.00000   60.46753
143   0.05905   0.01282   0.01013   1.00000   0.05905   0.01282   0.01013   1.00000   60.47363
144   0.05904   0.01294   0.01062   1.00000   0.05904   0.01294   0.01062   1.00000   60.46753
145   0.05905   0.01105   0.00766   1.00000   0.05905   0.01105   0.00766   1.00000   60.46448
146   0.05906   0.01077   0.01129   1.00000   0.05906   0.01077   0.01129   1.00000   60.54688
147   0.05908   0.01090   0.00989   1.00000   0.05908   0.01090   0.00989   1.00000   60.40344
148   0.05902   0.01126   0.01090   1.00000   0.05902   0.01126   0.01090   1.00000   60.61096
149   0.05905   0.01300   0.01044   1.00000   0.05905   0.01300   0.01044   1.00000   60.54077
150   0.05905   0.01001   0.01059   1.00000   0.05905   0.01001   0.01059   1.00000   60.42786
151   0.05895   0.01065   0.00943   1.00000   0.05895   0.01065   0.00943   1.00000   60.35767
152   0.05876   0.01001   0.01202   1.00000   0.05876   0.01001   0.01202   1.00000   60.54688
153   0.05893   0.01050   0.00992   1.00000   0.05893   0.01050   0.00992   1.00000   60.31494
154   0.05910   0.01245   0.01004   1.00000   0.05910   0.01245   0.01004   1.00000   60.44922
155   0.05905   0.00974   0.00848   1.00000   0.05905   0.00974   0.00848   1.00000   60.40955
156   0.05894   0.00964   0.01059   1.00000   0.05894   0.00964   0.01059   1.00000   60.55603
157   0.05903   0.01074   0.01038   1.00000   0.05903   0.01074   0.01038   1.00000   60.41565
158   0.05906   0.00925   0.01114   1.00000   0.05906   0.00925   0.01114   1.00000   60.47058
159   0.05904   0.00937   0.01019   1.00000   0.05904   0.00937   0.01019   1.00000   60.46753
160   0.05905   0.00980   0.01071   1.00000   0.05905   0.00980   0.01071   1.00000   60.46448
161   0.05905   0.01141   0.01157   1.00000   0.05905   0.01141   0.01157   1.00000   60.43396
162   0.05902   0.01108   0.00897   1.00000   0.05902   0.01108   0.00897   1.00000   60.37598
163   0.05893   0.01129   0.00967   1.00000   0.05893   0.01129   0.00967   1.00000   60.48584
164   0.05903   0.00952   0.01004   1.00000   0.05903   0.00952   0.01004   1.00000   60.47668
165   0.05904   0.00952   0.01279   1.00000   0.05904   0.00952   0.01279   1.00000   60.42175
166   0.05905   0.01022   0.00934   1.00000   0.05905   0.01022   0.00934   1.00000   60.34851
167   0.05902   0.01099   0.01151   1.00000   0.05902   0.01099   0.01151   1.00000   60.53162
168   0.05913   0.00903   0.01346   1.00000   0.05913   0.00903   0.01346   1.00000   60.54382
169   0.05918   0.01147   0.01181   1.00000   0.05918   0.01147   0.01181   1.00000   60.50415
170   0.05908   0.01102   0.01215   1.00000   0.05908   0.01102   0.01215   1.00000   60.41870
171   0.05904   0.01306   0.01160   1.00000   0.05904   0.01306   0.01160   1.00000   60.54382
172   0.05919   0.01074   0.00995   1.00000   0.05919   0.01074   0.00995   1.00000   60.57129
173   0.05918   0.01248   0.01080   1.00000   0.05918   0.01248   0.01080   1.00000   60.44006
174   0.05905   0.00970   0.00913   1.00000   0.05905   0.00970   0.00913   1.00000   60.37903
175   0.05899   0.01178   0.01068   1.00000   0.05899   0.01178   0.01068   1.00000   60.49805
176   0.05912   0.01059   0.01096   1.00000   0.05912   0.01059   0.01096   1.00000   60.41260
177   0.05908   0.01221   0.01083   1.00000   0.05908   0.01221   0.01083   1.00000   60.48279
178   0.05900   0.01038   0.00873   1.00000   0.05900   0.01038   0.00873   1.00000   60.56519
179   0.05905   0.01141   0.01028   1.00000   0.05905   0.01141   0.01028   1.00000   60.50415
180   0.05915   0.01028   0.00961   1.00000   0.05915   0.01028   0.00961   1.00000   60.46753
181   0.05911   0.01160   0.00913   1.00000   0.05911   0.01160   0.00913   1.00000   60.53162
182   0.05905   0.01099   0.01102   1.00000   0.05905   0.01099   0.01102   1.00000   60.40039
183   0.05907   0.00980   0.01215   1.00000   0.05907   0.00980   0.01215   1.00000   60.47668
184   0.05915   0.00977   0.01163   1.00000   0.05915   0.00977   0.01163   1.00000   60.35461
185   0.05906   0.01065   0.01099   1.00000   0.05906   0.01065   0.01099   1.00000   60.40649
186   0.05898   0.01013   0.00934   1.00000   0.05898   0.01013   0.00934   1.00000   60.47668
187   0.05901   0.00870   0.01254   1.00000   0.05901   0.00870   0.01254   1.00000   60.46448
188   0.05910   0.01123   0.00992   1.00000   0.05910   0.01123   0.00992   1.00000   60.38513
189   0.05904   0.01227   0.00797   1.00000   0.05904   0.01227   0.00797   1.00000   60.40344
190   0.05901   0.01172   0.00742   1.00000   0.05901   0.01172   0.00742   1.00000   60.51025
191   0.05908   0.01373   0.00781   1.00000   0.05908   0.01373   0.00781   1.00000   60.51331
192   0.05909   0.01059   0.00888   1.00000   0.05909   0.01059   0.00888   1.00000   60.44312
193   0.05907   0.00916   0.00952   1.00000   0.05907   0.00916   0.00952   1.00000   60.38208
194   0.05904   0.00955   0.01117   1.00000   0.05904   0.00955   0.01117   1.00000   60.49805
195   0.05913   0.01080   0.01050   1.00000   0.05913   0.01080   0.01050   1.00000   60.40344
196   0.05910   0.01169   0.01157   1.00000   0.05910   0.01169   0.01157   1.00000   60.43091
197   0.05902   0.01166   0.01126   1.00000   0.05902   0.01166   0.01126   1.00000   60.53162
198   0.05899   0.01111   0.01169   1.00000   0.05899   0.01111   0.01169   1.00000   60.57434
199   0.05905   0.01093   0.00925   1.00000   0.05905   0.01093   0.00925   1.00000   60.46448
200   0.05904   0.01169   0.01047   1.00000   0.05904   0.01169   0.01047   1.00000   60.42175
201   0.05903   0.01135   0.01077   1.00000   0.05903   0.01135   0.01077   1.00000   60.43091
202   0.05908   0.01083   0.01132   1.00000   0.05908   0.01083   0.01132   1.00000   60.48279
203   0.05905   0.00955   0.01181   1.00000   0.05905   0.00955   0.01181   1.00000   60.43396
204   0.05905   0.01215   0.01068   1.00000   0.05905   0.01215   0.01068   1.00000   60.41565
205   0.05904   0.01062   0.01321   1.00000   0.05904   0.01062   0.01321   1.00000   60.55908
206   0.05914   0.01282   0.01056   1.00000   0.05914   0.01282   0.01056   1.00000   60.48889
207   0.05912   0.01151   0.00784   1.00000   0.05912   0.01151   0.00784   1.00000   60.42786
208   0.05905   0.01080   0.01053   1.00000   0.05905   0.01080   0.01053   1.00000   60.44922
209   0.05905   0.00989   0.00977   1.00000   0.05905   0.00989   0.00977   1.00000   60.45837
210   0.05905   0.01138   0.01157   1.00000   0.05905   0.01138   0.01157   1.00000   60.44922
211   0.05899   0.01025   0.00790   1.00000   0.05899   0.01025   0.00790   1.00000   60.34241
212   0.05895   0.01285   0.00952   1.00000   0.05895   0.01285   0.00952   1.00000   60.54993
213   0.05907   0.01080   0.00970   1.00000   0.05907   0.01080   0.00970   1.00000   60.36682
214   0.05909   0.01151   0.01025   1.00000   0.05909   0.01151   0.01025   1.00000   60.42480
215   0.05904   0.01074   0.01117   1.00000   0.05904   0.01074   0.01117   1.00000   60.46753
216   0.05898   0.01077   0.01056   1.00000   0.05898   0.01077   0.01056   1.00000   60.52246
217   0.05911   0.01129   0.01230   1.00000   0.05911   0.01129   0.01230   1.00000   60.54688
218   0.05908   0.01032   0.01205   1.00000   0.05908   0.01032   0.01205   1.00000   60.46753
219   0.05902   0.01004   0.00964   1.00000   0.05902   0.01004   0.00964   1.00000   60.50110
220   0.05902   0.01172   0.01096   1.00000   0.05902   0.01172   0.01096   1.00000   60.51636
221   0.05908   0.01151   0.01172   1.00000   0.05908   0.01151   0.01172   1.00000   60.45227
222   0.05902   0.01108   0.00995   1.00000   0.05902   0.01108   0.00995   1.00000   60.31494
223   0.05895   0.01077   0.01120   1.00000   0.05895   0.01077   0.01120   1.00000   60.51941
224   0.05902   0.01099   0.00958   1.00000   0.05902   0.01099   0.00958   1.00000   60.40955
225   0.05907   0.00967   0.01263   1.00000   0.05907   0.00967   0.01263   1.00000   60.41260
226   0.05906   0.01102   0.01102   1.00000   0.05906   0.01102   0.01102   1.00000   60.37598
227   0.05901   0.01065   0.00925   1.00000   0.05901   0.01065   0.00925   1.00000   60.44922
228   0.05902   0.00842   0.01199   1.00000   0.05902   0.00842   0.01199   1.00000   60.57739
229   0.05915   0.01245   0.01114   1.00000   0.05915   0.01245   0.01114   1.00000   60.46143
230   0.05906   0.01205   0.01001   1.00000   0.05906   0.01205   0.01001   1.00000   60.53162
231   0.05901   0.00967   0.00943   1.00000   0.05901   0.00967   0.00943   1.00000   60.41870
232   0.05904   0.01114   0.01071   1.00000   0.05904   0.01114   0.01071   1.00000   60.58960
233   0.05889   0.01071   0.01285   1.00000   0.05889   0.01071   0.01285   1.00000   60.50720
234   0.05890   0.01114   0.00873   1.00000   0.05890   0.01114   0.00873   1.00000   60.18677
235   0.05902   0.01080   0.01019   1.00000   0.05902   0.01080   0.01019   1.00000   60.51636
236   0.05907   0.01187   0.01175   1.00000   0.05907   0.01187   0.01175   1.00000   60.42786
237   0.05906   0.01230   0.00940   1.00000   0.05906   0.01230   0.00940   1.00000   60.39124
238   0.05899   0.01004   0.01096   1.00000   0.05899   0.01004   0.01096   1.00000   60.42175
239   0.05906   0.01270   0.00961   1.00000   0.05906   0.01270   0.00961   1.00000   60.44006
240   0.05911   0.01071   0.01190   1.00000   0.05911   0.01071   0.01190   1.00000   60.53162
241   0.05910   0.01306   0.01093   1.00000   0.05910   0.01306   0.01093   1.00000   60.54077
242   0.05905   0.01144   0.01093   1.00000   0.05905   0.01144   0.01093   1.00000   60.44312
243   0.05908   0.01154   0.01123   1.00000   0.05908   0.01154   0.01123   1.00000   60.57434
244   0.05915   0.01321   0.00995   1.00000   0.05915   0.01321   0.00995   1.00000   60.46143
245   0.05902   0.01172   0.01306   1.00000   0.05902   0.01172   0.01306   1.00000   60.50110
246   0.05894   0.01263   0.01129   1.00000   0.05894   0.01263   0.01129   1.00000   60.49194
247   0.05903   0.01282   0.01270   1.00000   0.05903   0.01282   0.01270   1.00000   60.53772
248   0.05904   0.01199   0.01083   1.00000   0.05904   0.01199   0.01083   1.00000   60.42175
249   0.05903   0.01276   0.00900   1.00000   0.05903   0.01276   0.00900   1.00000   60.47668
250   0.05901   0.01276   0.01013   1.00000   0.05901   0.01276   0.01013   1.00000   60.54077
251   0.05910   0.01352   0.01114   1.00000   0.05910   0.01352   0.01114   1.00000   60.55603
252   0.05915   0.01123   0.01035   1.00000   0.05915   0.01123   0.01035   1.00000   60.43701
253   0.05907   0.01175   0.01254   1.00000   0.05907   0.01175   0.01254   1.00000   60.58350
254   0.05900   0.01477   0.00974   1.00000   0.05900   0.01477   0.00974   1.00000   60.54993
255   0.05910   0.01343   0.01016   1.00000   0.05910   0.01343   0.01016   1.00000   60.46448
256   0.05912   0.01190   0.01013   1.00000   0.05912   0.01190   0.01013   1.00000   60.46143
257   0.05904   0.01053   0.01096   1.00000   0.05904   0.01053   0.01096   1.00000   60.52856
258   0.05902   0.01273   0.01221   1.00000   0.05902   0.01273   0.01221   1.00000   60.54688
259   0.05904   0.00970   0.01297   1.00000   0.05904   0.00970   0.01297   1.00000   60.38818
260   0.05896   0.01318   0.00989   1.00000   0.05896   0.01318   0.00989   1.00000   60.51025
261   0.05902   0.01169   0.01306   1.00000   0.05902   0.01169   0.01306   1.00000   60.51636
262   0.05908   0.01224   0.00986   1.00000   0.05908   0.01224   0.00986   1.00000   60.52856
263   0.05906   0.01019   0.01044   1.00000   0.05906   0.01019   0.01044   1.00000   60.42175
264   0.05901   0.01386   0.00864   1.00000   0.05901   0.01386   0.00864   1.00000   60.55603
265   0.05903   0.01221   0.01022   1.00000   0.05903   0.01221   0.01022   1.00000   60.55298
266   0.05915   0.01263   0.01199   1.00000   0.05915   0.01263   0.01199   1.00000   60.39124
267   0.05907   0.01053   0.01224   1.00000   0.05907   0.01053   0.01224   1.00000   60.42786
268   0.05908   0.01215   0.01193   1.00000   0.05908   0.01215   0.01193   1.00000   60.57434
269   0.05907   0.01178   0.01141   1.00000   0.05907   0.01178   0.01141   1.00000   60.52246
270   0.05885   0.01193   0.00867   1.00000   0.05885   0.01193   0.00867   1.00000   60.51636
271   0.05892   0.01392   0.00885   1.00000   0.05892   0.01392   0.00885   1.00000   60.44922
272   0.05902   0.01181   0.01144   1.00000   0.05902   0.01181   0.01144   1.00000   60.51636
273   0.05905   0.01236   0.01068   1.00000   0.05905   0.01236   0.01068   1.00000   60.52551
274   0.05900   0.01340   0.01151   1.00000   0.05900   0.01340   0.01151   1.00000   60.47363
275   0.05899   0.01236   0.01025   1.00000   0.05899   0.01236   0.01025   1.00000   60.46753
276   0.05904   0.01364   0.01102   1.00000   0.05904   0.01364   0.01102   1.00000   60.65369
277   0.05912   0.01242   0.00970   1.00000   0.05912   0.01242   0.00970   1.00000   60.47668
278   0.05905   0.01257   0.00943   1.00000   0.05905   0.01257   0.00943   1.00000   60.44922
279   0.05903   0.01328   0.01065   1.00000   0.05903   0.01328   0.01065   1.00000   60.47668
280   0.05902   0.01144   0.01239   1.00000   0.05902   0.01144   0.01239   1.00000   60.50110
281   0.05902   0.01245   0.01218   1.00000   0.05902   0.01245   0.01218   1.00000   60.50110
282   0.05899   0.01340   0.00940   1.00000   0.05899   0.01340   0.00940   1.00000   60.48279
283   0.05897   0.01364   0.01187   1.00000   0.05897   0.01364   0.01187   1.00000   60.51636
284   0.05901   0.01523   0.01105   1.00000   0.05901   0.01523   0.01105   1.00000   60.58960
285   0.05905   0.01392   0.01184   1.00000   0.05905   0.01392   0.01184   1.00000   60.51941
286   0.05905   0.01279   0.01108   1.00000   0.05905   0.01279   0.01108   1.00000   60.42786
287   0.05903   0.01205   0.01117   1.00000   0.05903   0.01205   0.01117   1.00000   60.35156
288   0.05910   0.01267   0.00992   1.00000   0.05910   0.01267   0.00992   1.00000   60.43091
289   0.05909   0.01279   0.01154   1.00000   0.05909   0.01279   0.01154   1.00000   60.47363
290   0.05905   0.01456   0.00937   1.00000   0.05905   0.01456   0.00937   1.00000   60.43396
291   0.05904   0.01370   0.01086   1.00000   0.05904   0.01370   0.01086   1.00000   60.49805
292   0.05906   0.01071   0.01001   1.00000   0.05906   0.01071   0.01001   1.00000   60.44006
293   0.05902   0.01279   0.00934   1.00000   0.05902   0.01279   0.00934   1.00000   60.42480
294   0.05898   0.01376   0.00946   1.00000   0.05898   0.01376   0.00946   1.00000   60.47668
295   0.05899   0.01337   0.00974   1.00000   0.05899   0.01337   0.00974   1.00000   60.49805
296   0.05907   0.01230   0.01102   1.00000   0.05907   0.01230   0.01102   1.00000   60.52246
297   0.05903   0.01303   0.01160   1.00000   0.05903   0.01303   0.01160   1.00000   60.58350
298   0.05899   0.01242   0.01108   1.00000   0.05899   0.01242   0.01108   1.00000   60.49805
299   0.05904   0.01093   0.01166   1.00000   0.05904   0.01093   0.01166   1.00000   60.43701
300   0.05912   0.01346   0.00983   1.00000   0.05912   0.01346   0.00983   1.00000   60.44312
301   0.05908   0.01297   0.00867   1.00000   0.05908   0.01297   0.00867   1.00000   60.54382
302   0.05904   0.01147   0.00949   1.00000   0.05904   0.01147   0.00949   1.00000   60.40344
303   0.05906   0.01285   0.01093   1.00000   0.05906   0.01285   0.01093   1.00000   60.50110
304   0.05908   0.01248   0.01038   1.00000   0.05908   0.01248   0.01038   1.00000   60.41870
305   0.05894   0.01117   0.01126   1.00000   0.05894   0.01117   0.01126   1.00000   60.47668
306   0.05895   0.01212   0.00864   1.00000   0.05895   0.01212   0.00864   1.00000   60.53467
307   0.05904   0.01297   0.01175   1.00000   0.05904   0.01297   0.01175   1.00000   60.49805
308   0.05906   0.01047   0.01065   1.00000   0.05906   0.01047   0.01065   1.00000   60.33020
309   0.05895   0.00970   0.01123   1.00000   0.05895   0.00970   0.01123   1.00000   60.44312
310   0.05899   0.01184   0.01147   1.00000   0.05899   0.01184   0.01147   1.00000   60.52856
311   0.05907   0.01163   0.01334   1.00000   0.05907   0.01163   0.01334   1.00000   60.50720
312   0.05908   0.00934   0.00937   1.00000   0.05908   0.00934   0.00937   1.00000   60.35767
313   0.05898   0.01080   0.00989   1.00000   0.05898   0.01080   0.00989   1.00000   60.55298
314   0.05904   0.01074   0.01196   1.00000   0.05904   0.01074   0.01196   1.00000   60.54382
315   0.05909   0.01096   0.01181   1.00000   0.05909   0.01096   0.01181   1.00000   60.47363
316   0.05905   0.01138   0.01074   1.00000   0.05905   0.01138   0.01074   1.00000   60.38513
317   0.05891   0.01227   0.01190   1.00000   0.05891   0.01227   0.01190   1.00000   60.48889
318   0.05903   0.01273   0.01187   1.00000   0.05903   0.01273   0.01187   1.00000   60.55298
319   0.05904   0.01105   0.01007   1.00000   0.05904   0.01105   0.01007   1.00000   60.45227
320   0.05903   0.01093   0.01135   1.00000   0.05903   0.01093   0.01135   1.00000   60.44617
321   0.05900   0.01294   0.01144   1.00000   0.05900   0.01294   0.01144   1.00000   60.58044
322   0.05909   0.01358   0.01132   1.00000   0.05909   0.01358   0.01132   1.00000   60.39429
323   0.05906   0.01090   0.01019   1.00000   0.05906   0.01090   0.01019   1.00000   60.40649
324   0.05905   0.01279   0.01221   1.00000   0.05905   0.01279   0.01221   1.00000   60.46448
325   0.05903   0.01282   0.00851   1.00000   0.05903   0.01282   0.00851   1.00000   60.56824
326   0.05909   0.01312   0.00916   1.00000   0.05909   0.01312   0.00916   1.00000   60.50415
327   0.05904   0.01077   0.00906   1.00000   0.05904   0.01077   0.00906   1.00000   60.46753
328   0.05900   0.01190   0.01114   1.00000   0.05900   0.01190   0.01114   1.00000   60.50415
329   0.05894   0.01132   0.01401   1.00000   0.05894   0.01132   0.01401   1.00000   60.53772
330   0.05904   0.01337   0.01050   1.00000   0.05904   0.01337   0.01050   1.00000   60.52856
331   0.05901   0.01401   0.01157   1.00000   0.05901   0.01401   0.01157   1.00000   60.49500
332   0.05900   0.01175   0.01129   1.00000   0.05900   0.01175   0.01129   1.00000   60.48889
333   0.05911   0.01251   0.01117   1.00000   0.05911   0.01251   0.01117   1.00000   60.45532
334   0.05914   0.01117   0.01178   1.00000   0.05914   0.01117   0.01178   1.00000   60.53467
335   0.05905   0.01144   0.00916   1.00000   0.05905   0.01144   0.00916   1.00000   60.44312
336   0.05904   0.01083   0.01053   1.00000   0.05904   0.01083   0.01053   1.00000   60.45227
337   0.05910   0.01205   0.00967   1.00000   0.05910   0.01205   0.00967   1.00000   60.54077
338   0.05909   0.01239   0.01102   1.00000   0.05909   0.01239   0.01102   1.00000   60.44312
339   0.05901   0.01129   0.01093   1.00000   0.05901   0.01129   0.01093   1.00000   60.35461
340   0.05900   0.01083   0.00992   1.00000   0.05900   0.01083   0.00992   1.00000   60.50415
341   0.05899   0.01111   0.01267   1.00000   0.05899   0.01111   0.01267   1.00000   60.51331
342   0.05902   0.01196   0.01083   1.00000   0.05902   0.01196   0.01083   1.00000   60.47058
343   0.05895   0.01233   0.00995   1.00000   0.05895   0.01233   0.00995   1.00000   60.53467
344   0.05902   0.01117   0.01059   1.00000   0.05902   0.01117   0.01059   1.00000   60.45532
345   0.05906   0.00961   0.01038   1.00000   0.05906   0.00961   0.01038   1.00000   60.36072
346   0.05902   0.01123   0.01202   1.00000   0.05902   0.01123   0.01202   1.00000   60.44006
347   0.05901   0.01202   0.00876   1.00000   0.05901   0.01202   0.00876   1.00000   60.43396
348   0.05909   0.01303   0.01221   1.00000   0.05909   0.01303   0.01221   1.00000   60.48889
349   0.05910   0.01132   0.01151   1.00000   0.05910   0.01132   0.01151   1.00000   60.46448
350   0.05904   0.01233   0.01135   1.00000   0.05904   0.01233   0.01135   1.00000   60.49805
351   0.05894   0.01199   0.01056   1.00000   0.05894   0.01199   0.01056   1.00000   60.52246
352   0.05882   0.01102   0.00986   1.00000   0.05882   0.01102   0.00986   1.00000   60.38818
353   0.05893   0.01251   0.01047   1.00000   0.05893   0.01251   0.01047   1.00000   60.50110
354   0.05905   0.01233   0.01166   1.00000   0.05905   0.01233   0.01166   1.00000   60.48889
355   0.05902   0.01340   0.01230   1.00000   0.05902   0.01340   0.01230   1.00000   60.53162
356   0.05902   0.01267   0.01028   1.00000   0.05902   0.01267   0.01028   1.00000   60.47058
357   0.05899   0.01041   0.01163   1.00000   0.05899   0.01041   0.01163   1.00000   60.35767
358   0.05899   0.00824   0.01169   1.00000   0.05899   0.00824   0.01169   1.00000   60.49805
359   0.05904   0.01282   0.01236   1.00000   0.05904   0.01282   0.01236   1.00000   60.55908
360   0.05908   0.01074   0.01114   1.00000   0.05908   0.01074   0.01114   1.00000   60.45227
361   0.05902   0.01382   0.00992   1.00000   0.05902   0.01382   0.00992   1.00000   60.48584
362   0.05900   0.01053   0.01196   1.00000   0.05900   0.01053   0.01196   1.00000   60.48889
363   0.05904   0.01343   0.01068   1.00000   0.05904   0.01343   0.01068   1.00000   60.58960
364   0.05902   0.01337   0.01050   1.00000   0.05902   0.01337   0.01050   1.00000   60.54688
365   0.05899   0.01331   0.01102   1.00000   0.05899   0.01331   0.01102   1.00000   60.45227
366   0.05899   0.01376   0.01090   1.00000   0.05899   0.01376   0.01090   1.00000   60.48279
367   0.05906   0.01236   0.01022   1.00000   0.05906   0.01236   0.01022   1.00000   60.42175
368   0.05908   0.01190   0.01224   1.00000   0.05908   0.01190   0.01224   1.00000   60.48279
369   0.05912   0.01212   0.01178   1.00000   0.05912   0.01212   0.01178   1.00000   60.44312
370   0.05905   0.00970   0.01215   1.00000   0.05905   0.00970   0.01215   1.00000   60.55603
371   0.05909   0.00967   0.01132   1.00000   0.05909   0.00967   0.01132   1.00000   60.47363
372   0.05914   0.01270   0.01102   1.00000   0.05914   0.01270   0.01102   1.00000   60.40955
373   0.05911   0.01224   0.00986   1.00000   0.05911   0.01224   0.00986   1.00000   60.50110
374   0.05909   0.01215   0.01227   1.00000   0.05909   0.01215   0.01227   1.00000   60.53467
375   0.05908   0.01065   0.01178   1.00000   0.05908   0.01065   0.01178   1.00000   60.46753
376   0.05905   0.01288   0.00964   1.00000   0.05905   0.01288   0.00964   1.00000   60.30884
377   0.05905   0.01355   0.00925   1.00000   0.05905   0.01355   0.00925   1.00000   60.47363
378   0.05904   0.01230   0.01102   1.00000   0.05904   0.01230   0.01102   1.00000   60.55908
379   0.05905   0.01398   0.01056   1.00000   0.05905   0.01398   0.01056   1.00000   60.54993
380   0.05902   0.01297   0.01077   1.00000   0.05902   0.01297   0.01077   1.00000   60.57739
381   0.05905   0.01260   0.01202   1.00000   0.05905   0.01260   0.01202   1.00000   60.48889
382   0.05911   0.01172   0.01205   1.00000   0.05911   0.01172   0.01205   1.00000   60.48584
383   0.05913   0.01230   0.00922   1.00000   0.05913   0.01230   0.00922   1.00000   60.48279
384   0.05902   0.01117   0.01059   1.00000   0.05902   0.01117   0.01059   1.00000   60.45532
385   0.05905   0.01025   0.01093   1.00000   0.05905   0.01025   0.01093   1.00000   60.46448
386   0.05915   0.01401   0.01196   1.00000   0.05915   0.01401   0.01196   1.00000   60.47974
387   0.05906   0.01151   0.01205   1.00000   0.05906   0.01151   0.01205   1.00000   60.44006
388   0.05894   0.01227   0.01090   1.00000   0.05894   0.01227   0.01090   1.00000   60.55603
389   0.05904   0.01157   0.01032   1.00000   0.05904   0.01157   0.01032   1.00000   60.42175
390   0.05905   0.01163   0.01303   1.00000   0.05905   0.01163   0.01303   1.00000   60.54077
391   0.05904   0.01117   0.01346   1.00000   0.05904   0.01117   0.01346   1.00000   60.48279
392   0.05897   0.01358   0.01328   1.00000   0.05897   0.01358   0.01328   1.00000   60.61096
393   0.05908   0.01331   0.01080   1.00000   0.05908   0.01331   0.01080   1.00000   60.51331
394   0.05912   0.01334   0.01080   1.00000   0.05912   0.01334   0.01080   1.00000   60.46143
395   0.05905   0.01187   0.00937   1.00000   0.05905   0.01187   0.00937   1.00000   60.47974
396   0.05902   0.01236   0.01105   1.00000   0.05902   0.01236   0.01105   1.00000   60.51636
397   0.05911   0.01010   0.01218   1.00000   0.05911   0.01010   0.01218   1.00000   60.47058
398   0.05910   0.01099   0.01181   1.00000   0.05910   0.01099   0.01181   1.00000   60.44922
399   0.05901   0.01245   0.01074   1.00000   0.05901   0.01245   0.01074   1.00000   60.47974
400   0.05892   0.01202   0.01090   1.00000   0.05892   0.01202   0.01090   1.00000   60.47974
401   0.05906   0.01178   0.01175   1.00000   0.05906   0.01178   0.01175   1.00000   60.50110
402   0.05906   0.01215   0.01114   1.00000   0.05906   0.01215   0.01114   1.00000   60.51636
403   0.05903   0.01318   0.00839   1.00000   0.05903   0.01318   0.00839   1.00000   60.44617
404   0.05898   0.01193   0.00955   1.00000   0.05898   0.01193   0.00955   1.00000   60.58655
405   0.05908   0.01239   0.01147   1.00000   0.05908   0.01239   0.01147   1.00000   60.54382
406   0.05906   0.01209   0.01389   1.00000   0.05906   0.01209   0.01389   1.00000   60.50110
407   0.05905   0.01248   0.00928   1.00000   0.05905   0.01248   0.00928   1.00000   60.39429
408   0.05907   0.01193   0.01114   1.00000   0.05907   0.01193   0.01114   1.00000   60.42786
409   0.05911   0.01160   0.01044   1.00000   0.05911   0.01160   0.01044   1.00000   60.43701
410   0.05907   0.01294   0.01270   1.00000   0.05907   0.01294   0.01270   1.00000   60.41260
411   0.05899   0.01199   0.00989   1.00000   0.05899   0.01199   0.00989   1.00000   60.51331
412   0.05897   0.01325   0.01181   1.00000   0.05897   0.01325   0.01181   1.00000   60.58044
413   0.05905   0.01151   0.01028   1.00000   0.05905   0.01151   0.01028   1.00000   60.43396
414   0.05903   0.01337   0.00970   1.00000   0.05903   0.01337   0.00970   1.00000   60.46143
415   0.05900   0.01120   0.01093   1.00000   0.05900   0.01120   0.01093   1.00000   60.42786
416   0.05905   0.01013   0.01187   1.00000   0.05905   0.01013   0.01187   1.00000   60.49500
417   0.05908   0.01215   0.01068   1.00000   0.05908   0.01215   0.01068   1.00000   60.40344
418   0.05904   0.01236   0.01071   1.00000   0.05904   0.01236   0.01071   1.00000   60.51331
419   0.05905   0.01077   0.01276   1.00000   0.05905   0.01077   0.01276   1.00000   60.58655
420   0.05906   0.01007   0.01282   1.00000   0.05906   0.01007   0.01282   1.00000   60.48584
421   0.05908   0.01431   0.01157   1.00000   0.05908   0.01431   0.01157   1.00000   60.45227
422   0.05904   0.01154   0.01108   1.00000   0.05904   0.01154   0.01108   1.00000   60.49805
423   0.05906   0.01386   0.00928   1.00000   0.05906   0.01386   0.00928   1.00000   60.45532
424   0.05901   0.01352   0.01166   1.00000   0.05901   0.01352   0.01166   1.00000   60.47974
425   0.05897   0.01242   0.01108   1.00000   0.05897   0.01242   0.01108   1.00000   60.50110
426   0.05896   0.01053   0.01245   1.00000   0.05896   0.01053   0.01245   1.00000   60.60486
427   0.05907   0.01199   0.01129   1.00000   0.05907   0.01199   0.01129   1.00000   60.47668
428   0.05908   0.01254   0.00977   1.00000   0.05908   0.01254   0.00977   1.00000   60.41870
429   0.05904   0.01413   0.00900   1.00000   0.05904   0.01413   0.00900   1.00000   60.54382
430   0.05905   0.01254   0.00977   1.00000   0.05905   0.01254   0.00977   1.00000   60.44922
431   0.05910   0.01099   0.01291   1.00000   0.05910   0.01099   0.01291   1.00000   60.49500
432   0.05904   0.01315   0.01050   1.00000   0.05904   0.01315   0.01050   1.00000   60.43701
433   0.05886   0.01227   0.00998   1.00000   0.05886   0.01227   0.00998   1.00000   60.39734
434   0.05896   0.01422   0.01224   1.00000   0.05896   0.01422   0.01224   1.00000   60.57434
435   0.05908   0.01251   0.01086   1.00000   0.05908   0.01251   0.01086   1.00000   60.49805
436   0.05902   0.01355   0.01007   1.00000   0.05902   0.01355   0.01007   1.00000   60.54688
437   0.05896   0.01395   0.00934   1.00000   0.05896   0.01395   0.00934   1.00000   60.47974
438   0.05904   0.01102   0.01120   1.00000   0.05904   0.01102   0.01120   1.00000   60.51331
439   0.05913   0.01367   0.01083   1.00000   0.05913   0.01367   0.01083   1.00000   60.44922
440   0.05905   0.01270   0.01108   1.00000   0.05905   0.01270   0.01108   1.00000   60.48889
441   0.05904   0.01361   0.01053   1.00000   0.05904   0.01361   0.01053   1.00000   60.58960
442   0.05910   0.01212   0.01144   1.00000   0.05910   0.01212   0.01144   1.00000   60.47974
443   0.05916   0.01425   0.01007   1.00000   0.05916   0.01425   0.01007   1.00000   60.41260
444   0.05909   0.01129   0.01218   1.00000   0.05909   0.01129   0.01218   1.00000   60.45837
445   0.05907   0.01331   0.00903   1.00000   0.05907   0.01331   0.00903   1.00000   60.52246
446   0.05906   0.01190   0.01047   1.00000   0.05906   0.01190   0.01047   1.00000   60.50110
447   0.05905   0.01343   0.01050   1.00000   0.05905   0.01343   0.01050   1.00000   60.46448
448   0.05900   0.01276   0.01175   1.00000   0.05900   0.01276   0.01175   1.00000   60.42786
449   0.05900   0.01395   0.01187   1.00000   0.05900   0.01395   0.01187   1.00000   60.51941
450   0.05904   0.01108   0.01199   1.00000   0.05904   0.01108   0.01199   1.00000   60.54382
451   0.05906   0.01108   0.01053   1.00000   0.05906   0.01108   0.01053   1.00000   60.48584
452   0.05912   0.01328   0.00934   1.00000   0.05912   0.01328   0.00934   1.00000   60.49194
453   0.05915   0.01419   0.01056   1.00000   0.05915   0.01419   0.01056   1.00000   60.54688
454   0.05901   0.01059   0.01230   1.00000   0.05901   0.01059   0.01230   1.00000   60.40039
455   0.05904   0.01282   0.00995   1.00000   0.05904   0.01282   0.00995   1.00000   60.58960
456   0.05913   0.01379   0.01212   1.00000   0.05913   0.01379   0.01212   1.00000   60.52856
457   0.05918   0.01367   0.00952   1.00000   0.05918   0.01367   0.00952   1.00000   60.50415
458   0.05911   0.01233   0.00906   1.00000   0.05911   0.01233   0.00906   1.00000   60.34546
459   0.05899   0.01254   0.00803   1.00000   0.05899   0.01254   0.00803   1.00000   60.48279
460   0.05904   0.01166   0.00757   1.00000   0.05904   0.01166   0.00757   1.00000   60.38818
461   0.05906   0.01337   0.00873   1.00000   0.05906   0.01337   0.00873   1.00000   60.50110
462   0.05906   0.01221   0.00970   1.00000   0.05906   0.01221   0.00970   1.00000   60.44006
463   0.05902   0.01181   0.01144   1.00000   0.05902   0.01181   0.01144   1.00000   60.51636
464   0.05906   0.01141   0.00995   1.00000   0.05906   0.01141   0.00995   1.00000   60.53162
465   0.05910   0.01230   0.00986   1.00000   0.05910   0.01230   0.00986   1.00000   60.46448
466   0.05908   0.01318   0.01032   1.00000   0.05908   0.01318   0.01032   1.00000   60.51331
467   0.05907   0.01340   0.00906   1.00000   0.05907   0.01340   0.00906   1.00000   60.44617
468   0.05922   0.01236   0.00998   1.00000   0.05922   0.01236   0.00998   1.00000   60.43396
469   0.05917   0.01312   0.01135   1.00000   0.05917   0.01312   0.01135   1.00000   60.54382
470   0.05885   0.01090   0.01126   1.00000   0.05885   0.01090   0.01126   1.00000   60.49805
471   0.05885   0.01236   0.01032   1.00000   0.05885   0.01236   0.01032   1.00000   60.57739
472   0.05915   0.01349   0.00934   1.00000   0.05915   0.01349   0.00934   1.00000   60.53162
473   0.05906   0.01254   0.01056   1.00000   0.05906   0.01254   0.01056   1.00000   60.50110
474   0.05895   0.01386   0.00916   1.00000   0.05895   0.01386   0.00916   1.00000   60.45227
475   0.05896   0.01151   0.01065   1.00000   0.05896   0.01151   0.01065   1.00000   60.49500
476   0.05915   0.01282   0.00879   1.00000   0.05915   0.01282   0.00879   1.00000   60.47974
477   0.05908   0.01306   0.01013   1.00000   0.05908   0.01306   0.01013   1.00000   60.49805
478   0.05898   0.01111   0.00980   1.00000   0.05898   0.01111   0.00980   1.00000   60.46143
479   0.05906   0.01288   0.01028   1.00000   0.05906   0.01288   0.01028   1.00000   60.51636
480   0.05917   0.01343   0.01157   1.00000   0.05917   0.01343   0.01157   1.00000   60.43396
481   0.05905   0.01019   0.01157   1.00000   0.05905   0.01019   0.01157   1.00000   60.47974
482   0.05897   0.01364   0.01120   1.00000   0.05897   0.01364   0.01120   1.00000   60.56213
483   0.05897   0.01190   0.01181   1.00000   0.05897   0.01190   0.01181   1.00000   60.48584
484   0.05908   0.01090   0.01132   1.00000   0.05908   0.01090   0.01132   1.00000   60.43396
485   0.05902   0.01505   0.00992   1.00000   0.05902   0.01505   0.00992   1.00000   60.44006
486   0.05894   0.00964   0.00995   1.00000   0.05894   0.00964   0.00995   1.00000   60.58655
487   0.05905   0.01144   0.01059   1.00000   0.05905   0.01144   0.01059   1.00000   60.47974
488   0.05911   0.01270   0.01025   1.00000   0.05911   0.01270   0.01025   1.00000   60.37598
489   0.05900   0.01224   0.01233   1.00000   0.05900   0.01224   0.01233   1.00000   60.53467
490   0.05904   0.01242   0.00830   1.00000   0.05904   0.01242   0.00830   1.00000   60.51331
491   0.05907   0.01190   0.01080   1.00000   0.05907   0.01190   0.01080   1.00000   60.47668
492   0.05910   0.01135   0.01074   1.00000   0.05910   0.01135   0.01074   1.00000   60.35461
493   0.05901   0.01032   0.01175   1.00000   0.05901   0.01032   0.01175   1.00000   60.54077
494   0.05904   0.01340   0.00970   1.00000   0.05904   0.01340   0.00970   1.00000   60.43701
495   0.05899   0.01184   0.01132   1.00000   0.05899   0.01184   0.01132   1.00000   60.42175
496   0.05905   0.01578   0.00919   1.00000   0.05905   0.01578   0.00919   1.00000   60.51941
497   0.05895   0.01062   0.01135   1.00000   0.05895   0.01062   0.01135   1.00000   60.51331
498   0.05903   0.01151   0.00931   1.00000   0.05903   0.01151   0.00931   1.00000   60.52246
499   0.05904   0.01056   0.01099   1.00000   0.05904   0.01056   0.01099   1.00000   60.49805
500   0.05906   0.01370   0.00909   1.00000   0.05906   0.01370   0.00909   1.00000   60.47058
501   0.05902   0.01129   0.01221   1.00000   0.05902   0.01129   0.01221   1.00000   60.51636
502   0.05911   0.01218   0.01016   1.00000   0.05911   0.01218   0.01016   1.00000   60.51636
503   0.05907   0.01361   0.01181   1.00000   0.05907   0.01361   0.01181   1.00000   60.47668
504   0.05906   0.01209   0.01001   1.00000   0.05906   0.01209   0.01001   1.00000   60.51636
505   0.05907   0.01209   0.01099   1.00000   0.05907   0.01209   0.01099   1.00000   60.44617
506   0.05906   0.01215   0.01114   1.00000   0.05906   0.01215   0.01114   1.00000   60.51636
507   0.05898   0.01267   0.01126   1.00000   0.05898   0.01267   0.01126   1.00000   60.43091
508   0.05900   0.01440   0.01035   1.00000   0.05900   0.01440   0.01035   1.00000   60.51941
509   0.05902   0.01248   0.00977   1.00000   0.05902   0.01248   0.00977   1.00000   60.51636
510   0.05906   0.01260   0.00879   1.00000   0.05906   0.01260   0.00879   1.00000   60.45532
511   0.05901   0.01144   0.01028   1.00000   0.05901   0.01144   0.01028   1.00000   60.52551
512   0.05902   0.00989   0.01074   1.00000   0.05902   0.00989   0.01074   1.00000   60.42480
513   0.05907   0.01093   0.01147   1.00000   0.05907   0.01093   0.01147   1.00000   60.53772
514   0.05908   0.01157   0.01010   1.00000   0.05908   0.01157   0.01010   1.00000   60.49805
515   0.05905   0.01419   0.00836   1.00000   0.05905   0.01419   0.00836   1.00000   60.53467
516   0.05905   0.01050   0.01016   1.00000   0.05905   0.01050   0.01016   1.00000   60.44922
517   0.05908   0.01071   0.01050   1.00000   0.05908   0.01071   0.01050   1.00000   60.51331
518   0.05899   0.01077   0.01007   1.00000   0.05899   0.01077   0.01007   1.00000   60.43701
519   0.05892   0.01212   0.00897   1.00000   0.05892   0.01212   0.00897   1.00000   60.55908
520   0.05900   0.01230   0.00943   1.00000   0.05900   0.01230   0.00943   1.00000   60.44312
521   0.05906   0.01144   0.01300   1.00000   0.05906   0.01144   0.01300   1.00000   60.44006
522   0.05902   0.01178   0.01099   1.00000   0.05902   0.01178   0.01099   1.00000   60.47058
523   0.05897   0.01251   0.00946   1.00000   0.05897   0.01251   0.00946   1.00000   60.54688
524   0.05904   0.01318   0.01001   1.00000   0.05904   0.01318   0.01001   1.00000   60.57434
525   0.05910   0.01105   0.01147   1.00000   0.05910   0.01105   0.01147   1.00000   60.43091
526   0.05907   0.01117   0.01199   1.00000   0.05907   0.01117   0.01199   1.00000   60.44617
527   0.05900   0.01032   0.00888   1.00000   0.05900   0.01032   0.00888   1.00000   60.48889
528   0.05907   0.01202   0.01016   1.00000   0.05907   0.01202   0.01016   1.00000   60.41260
529   0.05908   0.01367   0.00940   1.00000   0.05908   0.01367   0.00940   1.00000   60.46753
530   0.05898   0.01312   0.00729   1.00000   0.05898   0.01312   0.00729   1.00000   60.47668
531   0.05894   0.01245   0.00934   1.00000   0.05894   0.01245   0.00934   1.00000   60.50720
532   0.05901   0.01154   0.00900   1.00000   0.05901   0.01154   0.00900   1.00000   60.52551
533   0.05912   0.01447   0.01010   1.00000   0.05912   0.01447   0.01010   1.00000   60.53772
534   0.05906   0.01221   0.00940   1.00000   0.05906   0.01221   0.00940   1.00000   60.47058
535   0.05899   0.01202   0.01147   1.00000   0.05899   0.01202   0.01147   1.00000   60.63843
536   0.05907   0.01184   0.01080   1.00000   0.05907   0.01184   0.01080   1.00000   60.50720
537   0.05908   0.01077   0.01147   1.00000   0.05908   0.01077   0.01147   1.00000   60.40344
538   0.05904   0.01071   0.01147   1.00000   0.05904   0.01071   0.01147   1.00000   60.46753
539   0.05906   0.01193   0.01114   1.00000   0.05906   0.01193   0.01114   1.00000   60.44006
540   0.05907   0.01196   0.01050   1.00000   0.05907   0.01196   0.01050   1.00000   60.44617
541   0.05905   0.01334   0.00970   1.00000   0.05905   0.01334   0.00970   1.00000   60.44922
542   0.05895   0.01181   0.01086   1.00000   0.05895   0.01181   0.01086   1.00000   60.37903
543   0.05899   0.01096   0.01138   1.00000   0.05899   0.01096   0.01138   1.00000   60.46753
544   0.05902   0.01273   0.01028   1.00000   0.05902   0.01273   0.01028   1.00000   60.42480
545   0.05899   0.01181   0.01212   1.00000   0.05899   0.01181   0.01212   1.00000   60.51331
546   0.05900   0.01175   0.01099   1.00000   0.05900   0.01175   0.01099   1.00000   60.48889
547   0.05907   0.01276   0.01154   1.00000   0.05907   0.01276   0.01154   1.00000   60.50720
548   0.05900   0.00992   0.00980   1.00000   0.05900   0.00992   0.00980   1.00000   60.47363
549   0.05904   0.01331   0.01212   1.00000   0.05904   0.01331   0.01212   1.00000   60.45227
550   0.05905   0.01334   0.01016   1.00000   0.05905   0.01334   0.01016   1.00000   60.54993
551   0.05903   0.01099   0.00974   1.00000   0.05903   0.01099   0.00974   1.00000   60.50720
552   0.05879   0.00946   0.01114   1.00000   0.05879   0.00946   0.01114   1.00000   60.39429
553   0.05888   0.00989   0.00873   1.00000   0.05888   0.00989   0.00873   1.00000   60.28442
554   0.05906   0.01321   0.01129   1.00000   0.05906   0.01321   0.01129   1.00000   60.44006
555   0.05906   0.01218   0.01181   1.00000   0.05906   0.01218   0.01181   1.00000   60.44006
556   0.05889   0.01105   0.01080   1.00000   0.05889   0.01105   0.01080   1.00000   60.50720
557   0.05893   0.01193   0.00943   1.00000   0.05893   0.01193   0.00943   1.00000   60.53162
558   0.05907   0.01199   0.01050   1.00000   0.05907   0.01199   0.01050   1.00000   60.41260
559   0.05907   0.01209   0.00955   1.00000   0.05907   0.01209   0.00955   1.00000   60.41260
560   0.05898   0.01267   0.01062   1.00000   0.05898   0.01267   0.01062   1.00000   60.47668
561   0.05899   0.01111   0.00946   1.00000   0.05899   0.01111   0.00946   1.00000   60.46753
562   0.05907   0.01010   0.01218   1.00000   0.05907   0.01010   0.01218   1.00000   60.50720
563   0.05910   0.01056   0.00983   1.00000   0.05910   0.01056   0.00983   1.00000   60.41565
564   0.05900   0.01154   0.01032   1.00000   0.05900   0.01154   0.01032   1.00000   60.45837
565   0.05902   0.01267   0.00882   1.00000   0.05902   0.01267   0.00882   1.00000   60.44006
566   0.05904   0.01297   0.00919   1.00000   0.05904   0.01297   0.00919   1.00000   60.42175
567   0.05904   0.01373   0.00977   1.00000   0.05904   0.01373   0.00977   1.00000   60.43701
568   0.05899   0.01102   0.01154   1.00000   0.05899   0.01102   0.01154   1.00000   60.51331
569   0.05912   0.01215   0.01080   1.00000   0.05912   0.01215   0.01080   1.00000   60.49194
570   0.05910   0.01028   0.00961   1.00000   0.05910   0.01028   0.00961   1.00000   60.49500
571   0.05906   0.01190   0.00937   1.00000   0.05906   0.01190   0.00937   1.00000   60.45532
572   0.05908   0.01144   0.00961   1.00000   0.05908   0.01144   0.00961   1.00000   60.51331
573   0.05915   0.01209   0.01077   1.00000   0.05915   0.01209   0.01077   1.00000   60.51636
574   0.05916   0.01273   0.01007   1.00000   0.05916   0.01273   0.01007   1.00000   60.42786
575   0.05906   0.01218   0.00986   1.00000   0.05906   0.01218   0.00986   1.00000   60.57739
576   0.05904   0.01242   0.00977   1.00000   0.05904   0.01242   0.00977   1.00000   60.54382
577   0.05905   0.01080   0.01230   1.00000   0.05905   0.01080   0.01230   1.00000   60.46448
578   0.05903   0.01181   0.01209   1.00000   0.05903   0.01181   0.01209   1.00000   60.49194
579   0.05903   0.01245   0.00992   1.00000   0.05903   0.01245   0.00992   1.00000   60.39734
580   0.05899   0.01285   0.01096   1.00000   0.05899   0.01285   0.01096   1.00000   60.55908
581   0.05908   0.01086   0.01019   1.00000   0.05908   0.01086   0.01019   1.00000   60.40344
582   0.05906   0.01163   0.01093   1.00000   0.05906   0.01163   0.01093   1.00000   60.54688
583   0.05904   0.01141   0.01059   1.00000   0.05904   0.01141   0.01059   1.00000   60.49805
584   0.05905   0.01297   0.00998   1.00000   0.05905   0.01297   0.00998   1.00000   60.47974
585   0.05909   0.00943   0.00952   1.00000   0.05909   0.00943   0.00952   1.00000   60.40955
586   0.05906   0.01291   0.00995   1.00000   0.05906   0.01291   0.00995   1.00000   60.50110
587   0.05905   0.00909   0.01209   1.00000   0.05905   0.00909   0.01209   1.00000   60.51025
588   0.05910   0.01340   0.01047   1.00000   0.05910   0.01340   0.01047   1.00000   60.46448
589   0.05903   0.01065   0.00827   1.00000   0.05903   0.01065   0.00827   1.00000   60.49194
590   0.05897   0.01343   0.00797   1.00000   0.05897   0.01343   0.00797   1.00000   60.45532
591   0.05902   0.01193   0.01019   1.00000   0.05902   0.01193   0.01019   1.00000   60.53162
592   0.05905   0.01312   0.00983   1.00000   0.05905   0.01312   0.00983   1.00000   60.47974
593   0.05906   0.01404   0.00946   1.00000   0.05906   0.01404   0.00946   1.00000   60.45532
594   0.05903   0.01044   0.01065   1.00000   0.05903   0.01044   0.01065   1.00000   60.36682
595   0.05908   0.01175   0.00998   1.00000   0.05908   0.01175   0.00998   1.00000   60.49805
596   0.05910   0.01245   0.00940   1.00000   0.05910   0.01245   0.00940   1.00000   60.49500
597   0.05906   0.01251   0.00766   1.00000   0.05906   0.01251   0.00766   1.00000   60.47058
598   0.05902   0.01160   0.01047   1.00000   0.05902   0.01160   0.01047   1.00000   60.50110
599   0.05906   0.01019   0.01123   1.00000   0.05906   0.01019   0.01123   1.00000   60.48584
600   0.05908   0.01166   0.00949   1.00000   0.05908   0.01166   0.00949   1.00000   60.48279
601   0.05898   0.01138   0.01111   1.00000   0.05898   0.01138   0.01111   1.00000   60.41565
602   0.05895   0.01343   0.01120   1.00000   0.05895   0.01343   0.01120   1.00000   60.50415
603   0.05905   0.00998   0.01267   1.00000   0.05905   0.00998   0.01267   1.00000   60.44922
604   0.05908   0.01260   0.00943   1.00000   0.05908   0.01260   0.00943   1.00000   60.38818
605   0.05903   0.01151   0.00806   1.00000   0.05903   0.01151   0.00806   1.00000   60.36682
606   0.05901   0.01178   0.01065   1.00000   0.05901   0.01178   0.01065   1.00000   60.51025
607   0.05907   0.01175   0.01175   1.00000   0.05907   0.01175   0.01175   1.00000   60.50720
608   0.05910   0.01050   0.00934   1.00000   0.05910   0.01050   0.00934   1.00000   60.35461
609   0.05901   0.01349   0.00925   1.00000   0.05901   0.01349   0.00925   1.00000   60.52551
610   0.05905   0.01138   0.01025   1.00000   0.05905   0.01138   0.01025   1.00000   60.54993
611   0.05912   0.01276   0.01007   1.00000   0.05912   0.01276   0.01007   1.00000   60.46143
612   0.05903   0.01074   0.00906   1.00000   0.05903   0.01074   0.00906   1.00000   60.49194
613   0.05892   0.01099   0.00931   1.00000   0.05892   0.01099   0.00931   1.00000   60.49500
614   0.05899   0.00995   0.01236   1.00000   0.05899   0.00995   0.01236   1.00000   60.52856
615   0.05905   0.01038   0.00967   1.00000   0.05905   0.01038   0.00967   1.00000   60.47363
616   0.05905   0.01251   0.00897   1.00000   0.05905   0.01251   0.00897   1.00000   60.39429
617   0.05901   0.01132   0.00723   1.00000   0.05901   0.01132   0.00723   1.00000   60.43396
618   0.05908   0.01303   0.01044   1.00000   0.05908   0.01303   0.01044   1.00000   60.49805
619   0.05909   0.01151   0.00961   1.00000   0.05909   0.01151   0.00961   1.00000   60.45837
620   0.05906   0.01300   0.01028   1.00000   0.05906   0.01300   0.01028   1.00000   60.42175
621   0.05905   0.01270   0.00867   1.00000   0.05905   0.01270   0.00867   1.00000   60.51941
622   0.05908   0.01010   0.01010   1.00000   0.05908   0.01010   0.01010   1.00000   60.51331
623   0.05908   0.01187   0.00903   1.00000   0.05908   0.01187   0.00903   1.00000   60.46753
624   0.05900   0.01071   0.00974   1.00000   0.05900   0.01071   0.00974   1.00000   60.50415
625   0.05894   0.01093   0.01044   1.00000   0.05894   0.01093   0.01044   1.00000   60.58655
626   0.05905   0.00943   0.01163   1.00000   0.05905   0.00943   0.01163   1.00000   60.43396
627   0.05898   0.01151   0.00967   1.00000   0.05898   0.01151   0.00967   1.00000   60.53772
628   0.05900   0.01154   0.01288   1.00000   0.05900   0.01154   0.01288   1.00000   60.54993
629   0.05905   0.01105   0.01086   1.00000   0.05905   0.01105   0.01086   1.00000   60.50415
630   0.05908   0.01196   0.01080   1.00000   0.05908   0.01196   0.01080   1.00000   60.41870
631   0.05901   0.01306   0.00952   1.00000   0.05901   0.01306   0.00952   1.00000   60.58960
632   0.05902   0.01065   0.00891   1.00000   0.05902   0.01065   0.00891   1.00000   60.45532
633   0.05894   0.01126   0.01032   1.00000   0.05894   0.01126   0.01032   1.00000   60.47668
634   0.05903   0.01227   0.00861   1.00000   0.05903   0.01227   0.00861   1.00000   60.38208
635   0.05905   0.01062   0.01144   1.00000   0.05905   0.01062   0.01144   1.00000   60.53467
636   0.05907   0.01120   0.01071   1.00000   0.05907   0.01120   0.01071   1.00000   60.50720
637   0.05902   0.01068   0.01022   1.00000   0.05902   0.01068   0.01022   1.00000   60.34546
638   0.05896   0.00946   0.01056   1.00000   0.05896   0.00946   0.01056   1.00000   60.41870
639   0.05896   0.01050   0.01053   1.00000   0.05896   0.01050   0.01053   1.00000   60.51025
640   0.05910   0.01090   0.01178   1.00000   0.05910   0.01090   0.01178   1.00000   60.51025
641   0.05910   0.01016   0.01218   1.00000   0.05910   0.01016   0.01218   1.00000   60.43091
642   0.05903   0.01010   0.00754   1.00000   0.05903   0.01010   0.00754   1.00000   60.46143
643   0.05905   0.01120   0.00992   1.00000   0.05905   0.01120   0.00992   1.00000   60.44312
644   0.05916   0.01129   0.01227   1.00000   0.05916   0.01129   0.01227   1.00000   60.50720
645   0.05910   0.00980   0.00958   1.00000   0.05910   0.00980   0.00958   1.00000   60.36987
646   0.05903   0.01053   0.00842   1.00000   0.05903   0.01053   0.00842   1.00000   60.46143
647   0.05904   0.01279   0.00949   1.00000   0.05904   0.01279   0.00949   1.00000   60.52856
648   0.05907   0.00943   0.00778   1.00000   0.05907   0.00943   0.00778   1.00000   60.41260
649   0.05899   0.01099   0.01138   1.00000   0.05899   0.01099   0.01138   1.00000   60.45227
650   0.05895   0.00818   0.01154   1.00000   0.05895   0.00818   0.01154   1.00000   60.45837
651   0.05902   0.01102   0.01184   1.00000   0.05902   0.01102   0.01184   1.00000   60.48584
652   0.05919   0.01114   0.00922   1.00000   0.05919   0.01114   0.00922   1.00000   60.44617
653   0.05907   0.01056   0.01096   1.00000   0.05907   0.01056   0.01096   1.00000   60.49194
654   0.05895   0.01013   0.01001   1.00000   0.05895   0.01013   0.01001   1.00000   60.46753
655   0.05908   0.01154   0.00851   1.00000   0.05908   0.01154   0.00851   1.00000   60.38818
656   0.05918   0.00888   0.00958   1.00000   0.05918   0.00888   0.00958   1.00000   60.37903
657   0.05913   0.01263   0.01102   1.00000   0.05913   0.01263   0.01102   1.00000   60.48279
658   0.05907   0.00998   0.01123   1.00000   0.05907   0.00998   0.01123   1.00000   60.39734
659   0.05907   0.01135   0.00946   1.00000   0.05907   0.01135   0.00946   1.00000   60.47668
660   0.05904   0.01041   0.01160   1.00000   0.05904   0.01041   0.01160   1.00000   60.57434
661   0.05900   0.00964   0.00943   1.00000   0.05900   0.00964   0.00943   1.00000   60.44312
662   0.05904   0.01038   0.01144   1.00000   0.05904   0.01038   0.01144   1.00000   60.49805
663   0.05906   0.00916   0.00998   1.00000   0.05906   0.00916   0.00998   1.00000   60.48584
664   0.05904   0.01010   0.01028   1.00000   0.05904   0.01010   0.01028   1.00000   60.40344
665   0.05903   0.01028   0.01096   1.00000   0.05903   0.01028   0.01096   1.00000   60.47668
666   0.05909   0.01090   0.01147   1.00000   0.05909   0.01090   0.01147   1.00000   60.54993
667   0.05918   0.01102   0.00824   1.00000   0.05918   0.01102   0.00824   1.00000   60.34851
668   0.05917   0.01025   0.00815   1.00000   0.05917   0.01025   0.00815   1.00000   60.43396
669   0.05912   0.00906   0.00980   1.00000   0.05912   0.00906   0.00980   1.00000   60.39734
670   0.05903   0.01105   0.01007   1.00000   0.05903   0.01105   0.01007   1.00000   60.46143
671   0.05899   0.01022   0.00757   1.00000   0.05899   0.01022   0.00757   1.00000   60.40649
672   0.05905   0.01102   0.00797   1.00000   0.05905   0.01102   0.00797   1.00000   60.47363
673   0.05898   0.01004   0.00919   1.00000   0.05898   0.01004   0.00919   1.00000   60.43091
674   0.05898   0.00949   0.01215   1.00000   0.05898   0.00949   0.01215   1.00000   60.53772
675   0.05897   0.01022   0.01016   1.00000   0.05897   0.01022   0.01016   1.00000   60.47058
676   0.05898   0.00977   0.00961   1.00000   0.05898   0.00977   0.00961   1.00000   60.47668
677   0.05911   0.01111   0.00974   1.00000   0.05911   0.01111   0.00974   1.00000   60.37598
678   0.05906   0.01050   0.01047   1.00000   0.05906   0.01050   0.01047   1.00000   60.44006
679   0.05904   0.01193   0.01114   1.00000   0.05904   0.01193   0.01114   1.00000   60.45227
680   0.05903   0.01041   0.00903   1.00000   0.05903   0.01041   0.00903   1.00000   60.49194
681   0.05911   0.01099   0.00873   1.00000   0.05911   0.01099   0.00873   1.00000   60.51636
682   0.05913   0.01151   0.00879   1.00000   0.05913   0.01151   0.00879   1.00000   60.35767
683   0.05903   0.00867   0.00818   1.00000   0.05903   0.00867   0.00818   1.00000   60.38208
684   0.05895   0.00940   0.00845   1.00000   0.05895   0.00940   0.00845   1.00000   60.49805
685   0.05903   0.01090   0.01135   1.00000   0.05903   0.01090   0.01135   1.00000   60.49194
686   0.05907   0.01083   0.00876   1.00000   0.05907   0.01083   0.00876   1.00000   60.41260
687   0.05897   0.01062   0.00714   1.00000   0.05897   0.01062   0.00714   1.00000   60.51636
688   0.05903   0.01086   0.00699   1.00000   0.05903   0.01086   0.00699   1.00000   60.41565
689   0.05908   0.01172   0.00964   1.00000   0.05908   0.01172   0.00964   1.00000   60.55908
690   0.05908   0.01157   0.01044   1.00000   0.05908   0.01157   0.01044   1.00000   60.49805
691   0.05903   0.01071   0.00763   1.00000   0.05903   0.01071   0.00763   1.00000   60.49194
692   0.05910   0.01016   0.00977   1.00000   0.05910   0.01016   0.00977   1.00000   60.46448
693   0.05915   0.00839   0.01004   1.00000   0.05915   0.00839   0.01004   1.00000   60.36987
694   0.05912   0.01376   0.00842   1.00000   0.05912   0.01376   0.00842   1.00000   60.41260
695   0.05900   0.01221   0.00943   1.00000   0.05900   0.01221   0.00943   1.00000   60.50415
696   0.05907   0.01273   0.00961   1.00000   0.05907   0.01273   0.00961   1.00000   60.41260
697   0.05908   0.01273   0.01074   1.00000   0.05908   0.01273   0.01074   1.00000   60.46753
698   0.05905   0.01245   0.01071   1.00000   0.05905   0.01245   0.01071   1.00000   60.43396
699   0.05898   0.01239   0.00961   1.00000   0.05898   0.01239   0.00961   1.00000   60.50720
700   0.05907   0.01032   0.01175   1.00000   0.05907   0.01032   0.01175   1.00000   60.47668
701   0.05908   0.01129   0.00977   1.00000   0.05908   0.01129   0.00977   1.00000   60.48279
702   0.05905   0.01099   0.00861   1.00000   0.05905   0.01099   0.00861   1.00000   60.43396
703   0.05905   0.01138   0.00882   1.00000   0.05905   0.01138   0.00882   1.00000   60.51941
704   0.05908   0.01205   0.01001   1.00000   0.05908   0.01205   0.01001   1.00000   60.51331
705   0.05911   0.01105   0.00763   1.00000   0.05911   0.01105   0.00763   1.00000   60.42175
706   0.05906   0.01181   0.00855   1.00000   0.05906   0.01181   0.00855   1.00000   60.44006
707   0.05904   0.01117   0.01071   1.00000   0.05904   0.01117   0.01071   1.00000   60.55908
708   0.05900   0.00888   0.01032   1.00000   0.05900   0.00888   0.01032   1.00000   60.45837
709   0.05905   0.01160   0.00949   1.00000   0.05905   0.01160   0.00949   1.00000   60.31799
710   0.05907   0.01071   0.00714   1.00000   0.05907   0.01071   0.00714   1.00000   60.36682
711   0.05906   0.01044   0.01013   1.00000   0.05906   0.01044   0.01013   1.00000   60.50110
712   0.05906   0.01038   0.00870   1.00000   0.05906   0.01038   0.00870   1.00000   60.51636
713   0.05908   0.01202   0.00952   1.00000   0.05908   0.01202   0.00952   1.00000   60.43396
714   0.05905   0.01056   0.01099   1.00000   0.05905   0.01056   0.01099   1.00000   60.47974
715   0.05912   0.01141   0.01233   1.00000   0.05912   0.01141   0.01233   1.00000   60.46143
716   0.05906   0.01044   0.01062   1.00000   0.05906   0.01044   0.01062   1.00000   60.59265
717   0.05905   0.01193   0.00696   1.00000   0.05905   0.01193   0.00696   1.00000   60.44922
718   0.05908   0.01132   0.00864   1.00000   0.05908   0.01132   0.00864   1.00000   60.40344
719   0.05908   0.00967   0.00955   1.00000   0.05908   0.00967   0.00955   1.00000   60.48279
720   0.05898   0.01004   0.00855   1.00000   0.05898   0.01004   0.00855   1.00000   60.47668
721   0.05899   0.01218   0.00830   1.00000   0.05899   0.01218   0.00830   1.00000   60.48279
722   0.05905   0.00980   0.00992   1.00000   0.05905   0.00980   0.00992   1.00000   60.39429
723   0.05908   0.01147   0.00848   1.00000   0.05908   0.01147   0.00848   1.00000   60.45227
724   0.05902   0.00925   0.00970   1.00000   0.05902   0.00925   0.00970   1.00000   60.47058
725   0.05900   0.01077   0.00989   1.00000   0.05900   0.01077   0.00989   1.00000   60.56519
726   0.05909   0.00952   0.00970   1.00000   0.05909   0.00952   0.00970   1.00000   60.45837
727   0.05914   0.01077   0.00760   1.00000   0.05914   0.01077   0.00760   1.00000   60.36377
728   0.05906   0.01071   0.00745   1.00000   0.05906   0.01071   0.00745   1.00000   60.34546
729   0.05905   0.01065   0.00793   1.00000   0.05905   0.01065   0.00793   1.00000   60.49500
730   0.05912   0.01016   0.01233   1.00000   0.05912   0.01016   0.01233   1.00000   60.52246
731   0.05906   0.01032   0.00998   1.00000   0.05906   0.01032   0.00998   1.00000   60.47058
732   0.05895   0.00864   0.00998   1.00000   0.05895   0.00864   0.00998   1.00000   60.48279
733   0.05907   0.00937   0.01019   1.00000   0.05907   0.00937   0.01019   1.00000   60.42786
734   0.05915   0.01044   0.00897   1.00000   0.05915   0.01044   0.00897   1.00000   60.39124
735   0.05910   0.01147   0.00913   1.00000   0.05910   0.01147   0.00913   1.00000   60.38513
736   0.05898   0.01138   0.01013   1.00000   0.05898   0.01138   0.01013   1.00000   60.47668
737   0.05907   0.01202   0.01016   1.00000   0.05907   0.01202   0.01016   1.00000   60.41260
738   0.05920   0.01254   0.00760   1.00000   0.05920   0.01254   0.00760   1.00000   60.34546
739   0.05906   0.00848   0.01086   1.00000   0.05906   0.00848   0.01086   1.00000   60.44006
740   0.05898   0.00861   0.00964   1.00000   0.05898   0.00861   0.00964   1.00000   60.50720
741   0.05914   0.01138   0.01086   1.00000   0.05914   0.01138   0.01086   1.00000   60.42480
742   0.05908   0.00879   0.01010   1.00000   0.05908   0.00879   0.01010   1.00000   60.37292
743   0.05904   0.00995   0.00803   1.00000   0.05904   0.00995   0.00803   1.00000   60.42175
744   0.05898   0.01144   0.00885   1.00000   0.05898   0.01144   0.00885   1.00000   60.50720
745   0.05902   0.00879   0.01093   1.00000   0.05902   0.00879   0.01093   1.00000   60.48584
746   0.05906   0.00967   0.01120   1.00000   0.05906   0.00967   0.01120   1.00000   60.39124
747   0.05902   0.01077   0.01230   1.00000   0.05902   0.01077   0.01230   1.00000   60.51636
748   0.05909   0.01144   0.00848   1.00000   0.05909   0.01144   0.00848   1.00000   60.45837
749   0.05910   0.01056   0.01205   1.00000   0.05910   0.01056   0.01205   1.00000   60.51025
750   0.05907   0.01135   0.01187   1.00000   0.05907   0.01135   0.01187   1.00000   60.42786
751   0.05899   0.01038   0.01291   1.00000   0.05899   0.01038   0.01291   1.00000   60.54382
752   0.05887   0.01276   0.01035   1.00000   0.05887   0.01276   0.01035   1.00000   60.51025
753   0.05905   0.01291   0.00723   1.00000   0.05905   0.01291   0.00723   1.00000   60.32410
754   0.05908   0.01099   0.00940   1.00000   0.05908   0.01099   0.00940   1.00000   60.49805
755   0.05905   0.01050   0.00983   1.00000   0.05905   0.01050   0.00983   1.00000   60.47974
756   0.05892   0.01205   0.01025   1.00000   0.05892   0.01205   0.01025   1.00000   60.51025
757   0.05899   0.01340   0.01007   1.00000   0.05899   0.01340   0.01007   1.00000   60.45227
758   0.05900   0.01114   0.00980   1.00000   0.05900   0.01114   0.00980   1.00000   60.42786
759   0.05905   0.01108   0.00800   1.00000   0.05905   0.01108   0.00800   1.00000   60.41565
760   0.05907   0.01343   0.01099   1.00000   0.05907   0.01343   0.01099   1.00000   60.53772
761   0.05905   0.01163   0.00903   1.00000   0.05905   0.01163   0.00903   1.00000   60.42786
762   0.05900   0.01028   0.00952   1.00000   0.05900   0.01028   0.00952   1.00000   60.47363
763   0.05909   0.01117   0.00958   1.00000   0.05909   0.01117   0.00958   1.00000   60.45837
764   0.05911   0.00888   0.00995   1.00000   0.05911   0.00888   0.00995   1.00000   60.40649
765   0.05905   0.01083   0.01053   1.00000   0.05905   0.01083   0.01053   1.00000   60.43396
766   0.05900   0.00842   0.00961   1.00000   0.05900   0.00842   0.00961   1.00000   60.36377
767   0.05902   0.00891   0.00934   1.00000   0.05902   0.00891   0.00934   1.00000   60.50110
768   0.05907   0.01056   0.01096   1.00000   0.05907   0.01056   0.01096   1.00000   60.46143
769   0.05904   0.00952   0.01181   1.00000   0.05904   0.00952   0.01181   1.00000   60.49805
770   0.05897   0.00858   0.01028   1.00000   0.05897   0.00858   0.01028   1.00000   60.47058
771   0.05907   0.00876   0.00833   1.00000   0.05907   0.00876   0.00833   1.00000   60.39734
772   0.05914   0.01102   0.01050   1.00000   0.05914   0.01102   0.01050   1.00000   60.47363
773   0.05908   0.01114   0.00909   1.00000   0.05908   0.01114   0.00909   1.00000   60.40344
774   0.05904   0.01090   0.01132   1.00000   0.05904   0.01090   0.01132   1.00000   60.48279
775   0.05913   0.00815   0.01160   1.00000   0.05913   0.00815   0.01160   1.00000   60.48279
776   0.05913   0.00830   0.01035   1.00000   0.05913   0.00830   0.01035   1.00000   60.44922
777   0.05905   0.01096   0.00958   1.00000   0.05905   0.01096   0.00958   1.00000   60.41565
778   0.05902   0.00784   0.01050   1.00000   0.05902   0.00784   0.01050   1.00000   60.48584
779   0.05904   0.00967   0.01120   1.00000   0.05904   0.00967   0.01120   1.00000   60.40344
780   0.05900   0.01086   0.01135   1.00000   0.05900   0.01086   0.01135   1.00000   60.51941
781   0.05895   0.00977   0.01221   1.00000   0.05895   0.00977   0.01221   1.00000   60.58350
782   0.05903   0.00943   0.00925   1.00000   0.05903   0.00943   0.00925   1.00000   60.47668
783   0.05909   0.00937   0.00903   1.00000   0.05909   0.00937   0.00903   1.00000   60.37903
784   0.05904   0.01016   0.00998   1.00000   0.05904   0.01016   0.00998   1.00000   60.37292
785   0.05900   0.00851   0.01025   1.00000   0.05900   0.00851   0.01025   1.00000   60.50415
786   0.05908   0.01007   0.00961   1.00000   0.05908   0.01007   0.00961   1.00000   60.43396
787   0.05908   0.00986   0.00974   1.00000   0.05908   0.00986   0.00974   1.00000   60.46753
788   0.05907   0.01086   0.01163   1.00000   0.05907   0.01086   0.01163   1.00000   60.44617
789   0.05905   0.00967   0.01245   1.00000   0.05905   0.00967   0.01245   1.00000   60.55603
790   0.05904   0.00922   0.01227   1.00000   0.05904   0.00922   0.01227   1.00000   60.55908
791   0.05899   0.01086   0.00943   1.00000   0.05899   0.01086   0.00943   1.00000   60.40649
792   0.05902   0.01102   0.01105   1.00000   0.05902   0.01102   0.01105   1.00000   60.42480
793   0.05900   0.00705   0.01123   1.00000   0.05900   0.00705   0.01123   1.00000   60.42786
794   0.05908   0.01032   0.00983   1.00000   0.05908   0.01032   0.00983   1.00000   60.34241
795   0.05901   0.01032   0.00919   1.00000   0.05901   0.01032   0.00919   1.00000   60.44922
796   0.05904   0.01010   0.00964   1.00000   0.05904   0.01010   0.00964   1.00000   60.43701
797   0.05905   0.01016   0.01157   1.00000   0.05905   0.01016   0.01157   1.00000   60.49500
798   0.05909   0.00815   0.01004   1.00000   0.05909   0.00815   0.01004   1.00000   60.36377
799   0.05905   0.01022   0.00980   1.00000   0.05905   0.01022   0.00980   1.00000   60.44922
800   0.05905   0.00974   0.01038   1.00000   0.05905   0.00974   0.01038   1.00000   60.52551
801   0.05912   0.01166   0.00946   1.00000   0.05912   0.01166   0.00946   1.00000   60.46143
802   0.05906   0.01059   0.00986   1.00000   0.05906   0.01059   0.00986   1.00000   60.40649
803   0.05894   0.01132   0.01111   1.00000   0.05894   0.01132   0.01111   1.00000   60.49194
804   0.05902   0.01181   0.01144   1.00000   0.05902   0.01181   0.01144   1.00000   60.51636
805   0.05905   0.00858   0.00882   1.00000   0.05905   0.00858   0.00882   1.00000   60.39429
806   0.05902   0.01117   0.01059   1.00000   0.05902   0.01117   0.01059   1.00000   60.45532
807   0.05900   0.01013   0.00967   1.00000   0.05900   0.01013   0.00967   1.00000   60.44312
808   0.05907   0.01028   0.01062   1.00000   0.05907   0.01028   0.01062   1.00000   60.46143
809   0.05908   0.01004   0.01025   1.00000   0.05908   0.01004   0.01025   1.00000   60.41870
810   0.05907   0.00919   0.00952   1.00000   0.05907   0.00919   0.00952   1.00000   60.36682
811   0.05900   0.01154   0.00949   1.00000   0.05900   0.01154   0.00949   1.00000   60.62927
812   0.05913   0.01007   0.00992   1.00000   0.05913   0.01007   0.00992   1.00000   60.37292
813   0.05909   0.00836   0.00827   1.00000   0.05909   0.00836   0.00827   1.00000   60.44312
814   0.05901   0.00983   0.00690   1.00000   0.05901   0.00983   0.00690   1.00000   60.47974
815   0.05895   0.01013   0.00824   1.00000   0.05895   0.01013   0.00824   1.00000   60.45227
816   0.05906   0.00934   0.00873   1.00000   0.05906   0.00934   0.00873   1.00000   60.42175
817   0.05905   0.00946   0.00812   1.00000   0.05905   0.00946   0.00812   1.00000   60.40039
818   0.05904   0.01013   0.00739   1.00000   0.05904   0.01013   0.00739   1.00000   60.32715
819   0.05899   0.00729   0.01059   1.00000   0.05899   0.00729   0.01059   1.00000   60.54382
820   0.05908   0.00909   0.01062   1.00000   0.05908   0.00909   0.01062   1.00000   60.48279
821   0.05907   0.01013   0.00964   1.00000   0.05907   0.01013   0.00964   1.00000   60.38208
822   0.05902   0.00858   0.00931   1.00000   0.05902   0.00858   0.00931   1.00000   60.50110
823   0.05907   0.01050   0.01126   1.00000   0.05907   0.01050   0.01126   1.00000   60.50720
824   0.05913   0.01126   0.00909   1.00000   0.05913   0.01126   0.00909   1.00000   60.51331
825   0.05909   0.01050   0.00836   1.00000   0.05909   0.01050   0.00836   1.00000   60.42480
826   0.05900   0.00913   0.00986   1.00000   0.05900   0.00913   0.00986   1.00000   60.44312
827   0.05902   0.01181   0.00809   1.00000   0.05902   0.01181   0.00809   1.00000   60.39124
828   0.05907   0.01001   0.00848   1.00000   0.05907   0.01001   0.00848   1.00000   60.44617
829   0.05906   0.01065   0.00778   1.00000   0.05906   0.01065   0.00778   1.00000   60.37598
830   0.05905   0.01254   0.00879   1.00000   0.05905   0.01254   0.00879   1.00000   60.51941
831   0.05906   0.00961   0.01022   1.00000   0.05906   0.00961   0.01022   1.00000   60.48584
832   0.05905   0.01059   0.00922   1.00000   0.05905   0.01059   0.00922   1.00000   60.47363
833   0.05890   0.00958   0.00836   1.00000   0.05890   0.00958   0.00836   1.00000   60.51331
834   0.05904   0.00980   0.01074   1.00000   0.05904   0.00980   0.01074   1.00000   60.46753
835   0.05915   0.00769   0.00848   1.00000   0.05915   0.00769   0.00848   1.00000   60.39124
836   0.05911   0.00964   0.00891   1.00000   0.05911   0.00964   0.00891   1.00000   60.53162
837   0.05903   0.00943   0.01019   1.00000   0.05903   0.00943   0.01019   1.00000   60.43091
838   0.05903   0.01080   0.00812   1.00000   0.05903   0.01080   0.00812   1.00000   60.52246
839   0.05905   0.01129   0.00897   1.00000   0.05905   0.01129   0.00897   1.00000   60.43396
840   0.05906   0.01022   0.00980   1.00000   0.05906   0.01022   0.00980   1.00000   60.44006
841   0.05904   0.00934   0.01163   1.00000   0.05904   0.00934   0.01163   1.00000   60.51331
842   0.05906   0.00913   0.01239   1.00000   0.05906   0.00913   0.01239   1.00000   60.48584
843   0.05909   0.01053   0.01047   1.00000   0.05909   0.01053   0.01047   1.00000   60.39429
844   0.05908   0.01096   0.01004   1.00000   0.05908   0.01096   0.01004   1.00000   60.48279
845   0.05909   0.01144   0.00751   1.00000   0.05909   0.01144   0.00751   1.00000   60.51941
846   0.05915   0.00934   0.01047   1.00000   0.05915   0.00934   0.01047   1.00000   60.38513
847   0.05906   0.00891   0.01077   1.00000   0.05906   0.00891   0.01077   1.00000   60.48584
848   0.05905   0.00830   0.00958   1.00000   0.05905   0.00830   0.00958   1.00000   60.44312
849   0.05907   0.01209   0.00888   1.00000   0.05907   0.01209   0.00888   1.00000   60.46143
850   0.05907   0.00851   0.00913   1.00000   0.05907   0.00851   0.00913   1.00000   60.39734
851   0.05903   0.01111   0.00766   1.00000   0.05903   0.01111   0.00766   1.00000   60.43091
852   0.05906   0.00955   0.00940   1.00000   0.05906   0.00955   0.00940   1.00000   60.48584
853   0.05910   0.00922   0.01032   1.00000   0.05910   0.00922   0.01032   1.00000   60.40039
854   0.05906   0.01212   0.00778   1.00000   0.05906   0.01212   0.00778   1.00000   60.39124
855   0.05905   0.01059   0.00906   1.00000   0.05905   0.01059   0.00906   1.00000   60.34851
856   0.05907   0.00867   0.00946   1.00000   0.05907   0.00867   0.00946   1.00000   60.50720
857   0.05919   0.00913   0.01007   1.00000   0.05919   0.00913   0.01007   1.00000   60.52551
858   0.05917   0.01038   0.00720   1.00000   0.05917   0.01038   0.00720   1.00000   60.40344
859   0.05903   0.00626   0.00919   1.00000   0.05903   0.00626   0.00919   1.00000   60.39734
860   0.05903   0.00845   0.00848   1.00000   0.05903   0.00845   0.00848   1.00000   60.52246
861   0.05908   0.00678   0.00922   1.00000   0.05908   0.00678   0.00922   1.00000   60.45227
862   0.05906   0.01053   0.01080   1.00000   0.05906   0.01053   0.01080   1.00000   60.37598
863   0.05895   0.00879   0.01129   1.00000   0.05895   0.00879   0.01129   1.00000   60.50415
864   0.05902   0.01001   0.00995   1.00000   0.05902   0.01001   0.00995   1.00000   60.50110
865   0.05908   0.00940   0.01196   1.00000   0.05908   0.00940   0.01196   1.00000   60.40344
866   0.05911   0.01129   0.00751   1.00000   0.05911   0.01129   0.00751   1.00000   60.37598
867   0.05905   0.01032   0.00949   1.00000   0.05905   0.01032   0.00949   1.00000   60.40039
868   0.05916   0.00888   0.00958   1.00000   0.05916   0.00888   0.00958   1.00000   60.39734
869   0.05918   0.00937   0.01028   1.00000   0.05918   0.00937   0.01028   1.00000   60.45532
870   0.05898   0.00955   0.01251   1.00000   0.05898   0.00955   0.01251   1.00000   60.44617
871   0.05897   0.00992   0.01013   1.00000   0.05897   0.00992   0.01013   1.00000   60.47058
872   0.05912   0.00934   0.01273   1.00000   0.05912   0.00934   0.01273   1.00000   60.49194
873   0.05908   0.01093   0.01099   1.00000   0.05908   0.01093   0.01099   1.00000   60.43396
874   0.05892   0.00891   0.01019   1.00000   0.05892   0.00891   0.01019   1.00000   60.40344
875   0.05895   0.01010   0.00934   1.00000   0.05895   0.01010   0.00934   1.00000   60.51941
876   0.05903   0.00864   0.01044   1.00000   0.05903   0.00864   0.01044   1.00000   60.50720
877   0.05902   0.01044   0.01080   1.00000   0.05902   0.01044   0.01080   1.00000   60.48584
878   0.05901   0.01172   0.01129   1.00000   0.05901   0.01172   0.01129   1.00000   60.49500
879   0.05900   0.00693   0.01297   1.00000   0.05900   0.00693   0.01297   1.00000   60.53467
880   0.05908   0.01077   0.00986   1.00000   0.05908   0.01077   0.00986   1.00000   60.51331
881   0.05904   0.00946   0.01022   1.00000   0.05904   0.00946   0.01022   1.00000   60.37292
882   0.05904   0.00937   0.01163   1.00000   0.05904   0.00937   0.01163   1.00000   60.48279
883   0.05908   0.00952   0.01227   1.00000   0.05908   0.00952   0.01227   1.00000   60.54382
884   0.05908   0.00967   0.01166   1.00000   0.05908   0.00967   0.01166   1.00000   60.46753
885   0.05900   0.01071   0.01038   1.00000   0.05900   0.01071   0.01038   1.00000   60.45837
886   0.05895   0.00943   0.01056   1.00000   0.05895   0.00943   0.01056   1.00000   60.45837
887   0.05908   0.01096   0.01245   1.00000   0.05908   0.01096   0.01245   1.00000   60.45227
888   0.05904   0.01090   0.00845   1.00000   0.05904   0.01090   0.00845   1.00000   60.40344
889   0.05895   0.00891   0.01212   1.00000   0.05895   0.00891   0.01212   1.00000   60.49805
890   0.05902   0.00970   0.01267   1.00000   0.05902   0.00970   0.01267   1.00000   60.42480
891   0.05908   0.00864   0.01071   1.00000   0.05908   0.00864   0.01071   1.00000   60.45227
892   0.05905   0.00995   0.01044   1.00000   0.05905   0.00995   0.01044   1.00000   60.37903
893   0.05902   0.00864   0.01028   1.00000   0.05902   0.00864   0.01028   1.00000   60.40955
894   0.05904   0.00980   0.01154   1.00000   0.05904   0.00980   0.01154   1.00000   60.54382
895   0.05914   0.01123   0.01068   1.00000   0.05914   0.01123   0.01068   1.00000   60.42480
896   0.05905   0.00955   0.00861   1.00000   0.05905   0.00955   0.00861   1.00000   60.40955
897   0.05892   0.01108   0.00980   1.00000   0.05892   0.01108   0.00980   1.00000   60.52551
898   0.05898   0.00897   0.00824   1.00000   0.05898   0.00897   0.00824   1.00000   60.43091
899   0.05908   0.00925   0.01001   1.00000   0.05908   0.00925   0.01001   1.00000   60.40344
900   0.05900   0.00943   0.00989   1.00000   0.05900   0.00943   0.00989   1.00000   60.45837
901   0.05900   0.01035   0.01032   1.00000   0.05900   0.01035   0.01032   1.00000   60.47363
902   0.05906   0.00952   0.01035   1.00000   0.05906   0.00952   0.01035   1.00000   60.44006
903   0.05908   0.00821   0.00974   1.00000   0.05908   0.00821   0.00974   1.00000   60.32715
904   0.05902   0.00800   0.01102   1.00000   0.05902   0.00800   0.01102   1.00000   60.45532
905   0.05905   0.01035   0.00885   1.00000   0.05905   0.01035   0.00885   1.00000   60.42786
906   0.05910   0.00922   0.00900   1.00000   0.05910   0.00922   0.00900   1.00000   60.49500
907   0.05906   0.00925   0.01178   1.00000   0.05906   0.00925   0.01178   1.00000   60.42175
908   0.05904   0.01129   0.00720   1.00000   0.05904   0.01129   0.00720   1.00000   60.45227
909   0.05898   0.01059   0.00970   1.00000   0.05898   0.01059   0.00970   1.00000   60.60181
910   0.05899   0.01013   0.00790   1.00000   0.05899   0.01013   0.00790   1.00000   60.43701
911   0.05905   0.01138   0.00754   1.00000   0.05905   0.01138   0.00754   1.00000   60.33325
912   0.05900   0.00995   0.00836   1.00000   0.05900   0.00995   0.00836   1.00000   60.42786
913   0.05904   0.01004   0.01093   1.00000   0.05904   0.01004   0.01093   1.00000   60.40344
914   0.05903   0.00873   0.00803   1.00000   0.05903   0.00873   0.00803   1.00000   60.46143
915   0.05905   0.01001   0.00946   1.00000   0.05905   0.01001   0.00946   1.00000   60.37903
916   0.05902   0.00888   0.01193   1.00000   0.05902   0.00888   0.01193   1.00000   60.36072
917   0.05908   0.01080   0.00986   1.00000   0.05908   0.01080   0.00986   1.00000   60.48279
918   0.05904   0.00873   0.01013   1.00000   0.05904   0.00873   0.01013   1.00000   60.45227
919   0.05903   0.00827   0.01022   1.00000   0.05903   0.00827   0.01022   1.00000   60.41565
920   0.05902   0.00925   0.01114   1.00000   0.05902   0.00925   0.01114   1.00000   60.50110
921   0.05903   0.00800   0.01068   1.00000   0.05903   0.00800   0.01068   1.00000   60.47668
922   0.05897   0.00977   0.00916   1.00000   0.05897   0.00977   0.00916   1.00000   60.39429
923   0.05896   0.00790   0.00909   1.00000   0.05896   0.00790   0.00909   1.00000   60.44922
924   0.05900   0.00958   0.00977   1.00000   0.05900   0.00958   0.00977   1.00000   60.48889
925   0.05905   0.00806   0.01132   1.00000   0.05905   0.00806   0.01132   1.00000   60.36377
926   0.05902   0.00967   0.01041   1.00000   0.05902   0.00967   0.01041   1.00000   60.34546
927   0.05900   0.00873   0.00934   1.00000   0.05900   0.00873   0.00934   1.00000   60.41260
928   0.05905   0.01257   0.00848   1.00000   0.05905   0.01257   0.00848   1.00000   60.51025
929   0.05909   0.01068   0.00858   1.00000   0.05909   0.01068   0.00858   1.00000   60.39429
930   0.05903   0.00812   0.00827   1.00000   0.05903   0.00812   0.00827   1.00000   60.41565
931   0.05904   0.00998   0.00961   1.00000   0.05904   0.00998   0.00961   1.00000   60.52856
932   0.05906   0.01028   0.00885   1.00000   0.05906   0.01028   0.00885   1.00000   60.47058
933   0.05907   0.01053   0.01126   1.00000   0.05907   0.01053   0.01126   1.00000   60.49194
934   0.05900   0.00855   0.01059   1.00000   0.05900   0.00855   0.01059   1.00000   60.45837
935   0.05898   0.01117   0.00995   1.00000   0.05898   0.01117   0.00995   1.00000   60.53772
936   0.05905   0.01041   0.00967   1.00000   0.05905   0.01041   0.00967   1.00000   60.45837
937   0.05902   0.00940   0.00842   1.00000   0.05902   0.00940   0.00842   1.00000   60.45532
938   0.05896   0.01016   0.00806   1.00000   0.05896   0.01016   0.00806   1.00000   60.55603
939   0.05904   0.01010   0.00964   1.00000   0.05904   0.01010   0.00964   1.00000   60.43701
940   0.05910   0.01062   0.01065   1.00000   0.05910   0.01062   0.01065   1.00000   60.43091
941   0.05907   0.00772   0.00839   1.00000   0.05907   0.00772   0.00839   1.00000   60.30579
942   0.05896   0.00806   0.01007   1.00000   0.05896   0.00806   0.01007   1.00000   60.52551
943   0.05907   0.00839   0.00894   1.00000   0.05907   0.00839   0.00894   1.00000   60.39734
944   0.05908   0.01077   0.01001   1.00000   0.05908   0.01077   0.01001   1.00000   60.37292
945   0.05897   0.00842   0.00705   1.00000   0.05897   0.00842   0.00705   1.00000   60.31494
946   0.05892   0.00903   0.01117   1.00000   0.05892   0.00903   0.01117   1.00000   60.49500
947   0.05899   0.00742   0.01032   1.00000   0.05899   0.00742   0.01032   1.00000   60.48279
948   0.05905   0.00903   0.00870   1.00000   0.05905   0.00903   0.00870   1.00000   60.43396
949   0.05898   0.00970   0.00995   1.00000   0.05898   0.00970   0.00995   1.00000   60.52246
950   0.05897   0.00784   0.01117   1.00000   0.05897   0.00784   0.01117   1.00000   60.48584
951   0.05899   0.00742   0.01096   1.00000   0.05899   0.00742   0.01096   1.00000   60.42175
952   0.05886   0.00891   0.00702   1.00000   0.05886   0.00891   0.00702   1.00000   60.39734
953   0.05895   0.00885   0.00922   1.00000   0.05895   0.00885   0.00922   1.00000   60.48889
954   0.05915   0.00836   0.00745   1.00000   0.05915   0.00836   0.00745   1.00000   60.29968
955   0.05907   0.00937   0.00873   1.00000   0.05907   0.00937   0.00873   1.00000   60.41260
956   0.05895   0.00998   0.00806   1.00000   0.05895   0.00998   0.00806   1.00000   60.45227
957   0.05886   0.00858   0.00986   1.00000   0.05886   0.00858   0.00986   1.00000   60.45837
958   0.05896   0.00586   0.01093   1.00000   0.05896   0.00586   0.01093   1.00000   60.49500
959   0.05903   0.00967   0.00845   1.00000   0.05903   0.00967   0.00845   1.00000   60.47668
960   0.05901   0.01050   0.00891   1.00000   0.05901   0.01050   0.00891   1.00000   60.33936
961   0.05895   0.00931   0.00943   1.00000   0.05895   0.00931   0.00943   1.00000   60.49805
962   0.05905   0.00964   0.00732   1.00000   0.05905   0.00964   0.00732   1.00000   60.43396
963   0.05906   0.01050   0.00806   1.00000   0.05906   0.01050   0.00806   1.00000   60.48584
964   0.05900   0.00876   0.00916   1.00000   0.05900   0.00876   0.00916   1.00000   60.51941
965   0.05903   0.00699   0.00830   1.00000   0.05903   0.00699   0.00830   1.00000   60.39734
966   0.05907   0.00900   0.01141   1.00000   0.05907   0.00900   0.01141   1.00000   60.38208
967   0.05902   0.00824   0.01056   1.00000   0.05902   0.00824   0.01056   1.00000   60.42480
968   0.05903   0.01004   0.01093   1.00000   0.05903   0.01004   0.01093   1.00000   60.41565
969   0.05900   0.00803   0.01083   1.00000   0.05900   0.00803   0.01083   1.00000   60.58044
970   0.05902   0.00717   0.01108   1.00000   0.05902   0.00717   0.01108   1.00000   60.45532
971   0.05897   0.00806   0.01025   1.00000   0.05897   0.00806   0.01025   1.00000   60.36072
972   0.05898   0.00906   0.00986   1.00000   0.05898   0.00906   0.00986   1.00000   60.50720
973   0.05913   0.00943   0.00809   1.00000   0.05913   0.00943   0.00809   1.00000   60.35767
974   0.05909   0.00931   0.00937   1.00000   0.05909   0.00931   0.00937   1.00000   60.39429
975   0.05901   0.00894   0.00855   1.00000   0.05901   0.00894   0.00855   1.00000   60.40039
976   0.05903   0.00732   0.01059   1.00000   0.05903   0.00732   0.01059   1.00000   60.47668
977   0.05912   0.01074   0.01016   1.00000   0.05912   0.01074   0.01016   1.00000   60.47668
978   0.05908   0.00763   0.01077   1.00000   0.05908   0.00763   0.01077   1.00000   60.31189
979   0.05899   0.00961   0.00864   1.00000   0.05899   0.00961   0.00864   1.00000   60.40649
980   0.05898   0.00748   0.01032   1.00000   0.05898   0.00748   0.01032   1.00000   60.43091
981   0.05905   0.00998   0.00946   1.00000   0.05905   0.00998   0.00946   1.00000   60.39429
982   0.05904   0.00977   0.01025   1.00000   0.05904   0.00977   0.01025   1.00000   60.40344
983   0.05894   0.00745   0.00922   1.00000   0.05894   0.00745   0.00922   1.00000   60.43091
984   0.05902   0.01181   0.00967   1.00000   0.05902   0.01181   0.00967   1.00000   60.51636
985   0.05911   0.01068   0.01001   1.00000   0.05911   0.01068   0.01001   1.00000   60.42175
986   0.05902   0.00812   0.01117   1.00000   0.05902   0.00812   0.01117   1.00000   60.48584
987   0.05896   0.00949   0.01007   1.00000   0.05896   0.00949   0.01007   1.00000   60.54077
988   0.05907   0.00790   0.00839   1.00000   0.05907   0.00790   0.00839   1.00000   60.39734
989   0.05912   0.01016   0.00897   1.00000   0.05912   0.01016   0.00897   1.00000   60.38208
990   0.05902   0.00894   0.00967   1.00000   0.05902   0.00894   0.00967   1.00000   60.45532
991   0.05900   0.00897   0.01144   1.00000   0.05900   0.00897   0.01144   1.00000   60.45837
992   0.05904   0.00955   0.01086   1.00000   0.05904   0.00955   0.01086   1.00000   60.51331
993   0.05900   0.00900   0.01065   1.00000   0.05900   0.00900   0.01065   1.00000   60.36377
994   0.05897   0.00967   0.00977   1.00000   0.05897   0.00967   0.00977   1.00000   60.44006
995   0.05897   0.01035   0.01132   1.00000   0.05897   0.01035   0.01132   1.00000   60.44006
996   0.05907   0.01187   0.00790   1.00000   0.05907   0.01187   0.00790   1.00000   60.42786
997   0.05905   0.00882   0.01157   1.00000   0.05905   0.00882   0.01157   1.00000   60.39429
998   0.05901   0.00891   0.01001   1.00000   0.05901   0.00891   0.01001   1.00000   60.44922
999   0.05902   0.00909   0.00986   1.00000   0.05902   0.00909   0.00986   1.00000   60.45532
1000   0.05907   0.00815   0.00970   1.00000   0.05907   0.00815   0.00970   1.00000   60.39734
1001   0.05907   0.00952   0.00955   1.00000   0.05907   0.00952   0.00955   1.00000   60.36682
1002   0.05903   0.00943   0.01053   1.00000   0.05903   0.00943   0.01053   1.00000   60.38208
1003   0.05902   0.00790   0.00986   1.00000   0.05902   0.00790   0.00986   1.00000   60.48584
1004   0.05900   0.00827   0.01056   1.00000   0.05900   0.00827   0.01056   1.00000   60.42786
1005   0.05891   0.01053   0.01135   1.00000   0.05891   0.01053   0.01135   1.00000   60.61401
1006   0.05899   0.01096   0.01071   1.00000   0.05899   0.01096   0.01071   1.00000   60.51331
1007   0.05900   0.00766   0.01096   1.00000   0.05900   0.00766   0.01096   1.00000   60.48889
1008   0.05903   0.01016   0.00900   1.00000   0.05903   0.01016   0.00900   1.00000   60.43091
1009   0.05900   0.00961   0.01120   1.00000   0.05900   0.00961   0.01120   1.00000   60.48889
1010   0.05905   0.00778   0.01001   1.00000   0.05905   0.00778   0.01001   1.00000   60.42786
1011   0.05907   0.00928   0.01080   1.00000   0.05907   0.00928   0.01080   1.00000   60.46143
1012   0.05905   0.00940   0.01019   1.00000   0.05905   0.00940   0.01019   1.00000   60.42786
1013   0.05902   0.01007   0.00821   1.00000   0.05902   0.01007   0.00821   1.00000   60.45532
1014   0.05908   0.01172   0.00964   1.00000   0.05908   0.01172   0.00964   1.00000   60.55908
1015   0.05910   0.01105   0.01068   1.00000   0.05910   0.01105   0.01068   1.00000   60.35461
1016   0.05895   0.01096   0.01074   1.00000   0.05895   0.01096   0.01074   1.00000   60.51941
1017   0.05894   0.00726   0.01047   1.00000   0.05894   0.00726   0.01047   1.00000   60.47668
1018   0.05906   0.01077   0.00876   1.00000   0.05906   0.01077   0.00876   1.00000   60.45532
1019   0.05902   0.01032   0.01144   1.00000   0.05902   0.01032   0.01144   1.00000   60.54688
1020   0.05898   0.00906   0.00873   1.00000   0.05898   0.00906   0.00873   1.00000   60.44617
1021   0.05904   0.01114   0.01056   1.00000   0.05904   0.01114   0.01056   1.00000   60.45227
1022   0.05912   0.01062   0.01062   1.00000   0.05912   0.01062   0.01062   1.00000   60.41260
1023   0.05907   0.01166   0.01013   1.00000   0.05907   0.01166   0.01013   1.00000   60.44617
1024   0.05900   0.01004   0.01028   1.00000   0.05900   0.01004   0.01028   1.00000   60.47363
1025   0.05905   0.00702   0.01230   1.00000   0.05905   0.00702   0.01230   1.00000   60.46448
1026   0.05915   0.01147   0.00958   1.00000   0.05915   0.01147   0.00958   1.00000   60.44617
1027   0.05903   0.01053   0.00952   1.00000   0.05903   0.01053   0.00952   1.00000   60.50720
1028   0.05893   0.00873   0.00937   1.00000   0.05893   0.00873   0.00937   1.00000   60.45532
1029   0.05902   0.00943   0.01102   1.00000   0.05902   0.00943   0.01102   1.00000   60.50110
1030   0.05907   0.01215   0.01099   1.00000   0.05907   0.01215   0.01099   1.00000   60.39734
1031   0.05901   0.00900   0.00967   1.00000   0.05901   0.00900   0.00967   1.00000   60.41870
1032   0.05894   0.01010   0.00888   1.00000   0.05894   0.01010   0.00888   1.00000   60.43091
1033   0.05890   0.00897   0.01022   1.00000   0.05890   0.00897   0.01022   1.00000   60.35767
1034   0.05902   0.00906   0.00970   1.00000   0.05902   0.00906   0.00970   1.00000   60.36072
1035   0.05910   0.01059   0.01047   1.00000   0.05910   0.01059   0.01047   1.00000   60.35461
1036   0.05904   0.00903   0.00983   1.00000   0.05904   0.00903   0.00983   1.00000   60.48279
1037   0.05907   0.00864   0.01007   1.00000   0.05907   0.00864   0.01007   1.00000   60.50720
1038   0.05906   0.01248   0.01007   1.00000   0.05906   0.01248   0.01007   1.00000   60.45532
1039   0.05901   0.00958   0.00894   1.00000   0.05901   0.00958   0.00894   1.00000   60.40039
1040   0.05896   0.00916   0.00925   1.00000   0.05896   0.00916   0.00925   1.00000   60.49500
1041   0.05905   0.01001   0.01236   1.00000   0.05905   0.01001   0.01236   1.00000   60.44922
1042   0.05901   0.01068   0.00955   1.00000   0.05901   0.01068   0.00955   1.00000   60.40039
1043   0.05897   0.01025   0.01065   1.00000   0.05897   0.01025   0.01065   1.00000   60.56213
1044   0.05905   0.00998   0.01105   1.00000   0.05905   0.00998   0.01105   1.00000   60.55603
1045   0.05907   0.00793   0.01193   1.00000   0.05907   0.00793   0.01193   1.00000   60.39734
1046   0.05904   0.01184   0.01035   1.00000   0.05904   0.01184   0.01035   1.00000   60.45227
1047   0.05905   0.01062   0.01144   1.00000   0.05905   0.01062   0.01144   1.00000   60.52551
1048   0.05910   0.00992   0.01056   1.00000   0.05910   0.00992   0.01056   1.00000   60.46448
1049   0.05907   0.01041   0.00757   1.00000   0.05907   0.01041   0.00757   1.00000   60.44617
1050   0.05900   0.00806   0.01071   1.00000   0.05900   0.00806   0.01071   1.00000   60.45837
1051   0.05905   0.00967   0.01022   1.00000   0.05905   0.00967   0.01022   1.00000   60.47363
1052   0.05910   0.00827   0.01068   1.00000   0.05910   0.00827   0.01068   1.00000   60.46448
1053   0.05908   0.01126   0.00961   1.00000   0.05908   0.01126   0.00961   1.00000   60.40344
1054   0.05891   0.00958   0.00931   1.00000   0.05891   0.00958   0.00931   1.00000   60.44312
1055   0.05903   0.00873   0.01013   1.00000   0.05903   0.00873   0.01013   1.00000   60.46143
1056   0.05915   0.01041   0.01154   1.00000   0.05915   0.01041   0.01154   1.00000   60.48584
1057   0.05912   0.01175   0.01028   1.00000   0.05912   0.01175   0.01028   1.00000   60.46143
1058   0.05904   0.00906   0.01016   1.00000   0.05904   0.00906   0.01016   1.00000   60.43701
1059   0.05909   0.00903   0.01126   1.00000   0.05909   0.00903   0.01126   1.00000   60.47363
1060   0.05911   0.01102   0.01035   1.00000   0.05911   0.01102   0.01035   1.00000   60.39124
1061   0.05907   0.01138   0.00848   1.00000   0.05907   0.01138   0.00848   1.00000   60.50720
1062   0.05901   0.00705   0.00992   1.00000   0.05901   0.00705   0.00992   1.00000   60.49500
1063   0.05907   0.01129   0.00913   1.00000   0.05907   0.01129   0.00913   1.00000   60.53772
1064   0.05900   0.01041   0.01035   1.00000   0.05900   0.01041   0.01035   1.00000   60.44312
1065   0.05898   0.01129   0.00867   1.00000   0.05898   0.01129   0.00867   1.00000   60.50720
1066   0.05901   0.00977   0.01138   1.00000   0.05901   0.00977   0.01138   1.00000   60.47974
1067   0.05908   0.01059   0.01062   1.00000   0.05908   0.01059   0.01062   1.00000   60.48279
1068   0.05916   0.00903   0.01010   1.00000   0.05916   0.00903   0.01010   1.00000   60.36682
1069   0.05905   0.01013   0.00931   1.00000   0.05905   0.01013   0.00931   1.00000   60.42786
1070   0.05889   0.00967   0.01257   1.00000   0.05889   0.00967   0.01257   1.00000   60.44617
1071   0.05906   0.00961   0.00974   1.00000   0.05906   0.00961   0.00974   1.00000   60.40649
1072   0.05911   0.01151   0.01138   1.00000   0.05911   0.01151   0.01138   1.00000   60.45532
1073   0.05904   0.01312   0.00775   1.00000   0.05904   0.01312   0.00775   1.00000   60.51331
1074   0.05901   0.01062   0.00925   1.00000   0.05901   0.01062   0.00925   1.00000   60.46448
1075   0.05903   0.00983   0.01007   1.00000   0.05903   0.00983   0.01007   1.00000   60.50720
1076   0.05902   0.01117   0.00980   1.00000   0.05902   0.01117   0.00980   1.00000   60.37598
1077   0.05896   0.01129   0.00900   1.00000   0.05896   0.01129   0.00900   1.00000   60.51025
1078   0.05905   0.01071   0.01004   1.00000   0.05905   0.01071   0.01004   1.00000   60.44312
1079   0.05905   0.00992   0.01187   1.00000   0.05905   0.00992   0.01187   1.00000   60.41565
1080   0.05903   0.01038   0.00919   1.00000   0.05903   0.01038   0.00919   1.00000   60.39734
1081   0.05902   0.01160   0.00836   1.00000   0.05902   0.01160   0.00836   1.00000   60.51636
1082   0.05906   0.01083   0.00986   1.00000   0.05906   0.01083   0.00986   1.00000   60.47058
1083   0.05908   0.01059   0.00855   1.00000   0.05908   0.01059   0.00855   1.00000   60.46753
1084   0.05904   0.01016   0.01013   1.00000   0.05904   0.01016   0.01013   1.00000   60.49805
1085   0.05905   0.01050   0.01096   1.00000   0.05905   0.01050   0.01096   1.00000   60.54077
1086   0.05907   0.01050   0.01062   1.00000   0.05907   0.01050   0.01062   1.00000   60.55298
1087   0.05904   0.01184   0.00952   1.00000   0.05904   0.01184   0.00952   1.00000   60.37292
1088   0.05897   0.01202   0.00845   1.00000   0.05897   0.01202   0.00845   1.00000   60.48584
1089   0.05900   0.01041   0.01160   1.00000   0.05900   0.01041   0.01160   1.00000   60.59875
1090   0.05904   0.01117   0.00882   1.00000   0.05904   0.01117   0.00882   1.00000   60.42175
1091   0.05903   0.01123   0.01105   1.00000   0.05903   0.01123   0.01105   1.00000   60.49194
1092   0.05904   0.00989   0.00833   1.00000   0.05904   0.00989   0.00833   1.00000   60.45227
1093   0.05906   0.01062   0.01001   1.00000   0.05906   0.01062   0.01001   1.00000   60.50110
1094   0.05906   0.00986   0.01086   1.00000   0.05906   0.00986   0.01086   1.00000   60.51636
1095   0.05908   0.01205   0.00842   1.00000   0.05908   0.01205   0.00842   1.00000   60.37292
1096   0.05907   0.01062   0.01178   1.00000   0.05907   0.01062   0.01178   1.00000   60.49194
1097   0.05911   0.01151   0.01074   1.00000   0.05911   0.01151   0.01074   1.00000   60.48584
1098   0.05902   0.01221   0.01053   1.00000   0.05902   0.01221   0.01053   1.00000   60.54688
1099   0.05897   0.01306   0.01004   1.00000   0.05897   0.01306   0.01004   1.00000   60.47058
1100   0.05903   0.01303   0.01224   1.00000   0.05903   0.01303   0.01224   1.00000   60.53772
1101   0.05905   0.01035   0.00919   1.00000   0.05905   0.01035   0.00919   1.00000   60.40039
1102   0.05903   0.01132   0.01074   1.00000   0.05903   0.01132   0.01074   1.00000   60.46143
1103   0.05898   0.00964   0.00977   1.00000   0.05898   0.00964   0.00977   1.00000   60.44617
1104   0.05908   0.01022   0.00980   1.00000   0.05908   0.01022   0.00980   1.00000   60.41870
1105   0.05906   0.01041   0.01077   1.00000   0.05906   0.01041   0.01077   1.00000   60.48584
1106   0.05905   0.01141   0.01010   1.00000   0.05905   0.01141   0.01010   1.00000   60.40955
1107   0.05901   0.01035   0.00855   1.00000   0.05901   0.01035   0.00855   1.00000   60.47974
1108   0.05910   0.01065   0.00824   1.00000   0.05910   0.01065   0.00824   1.00000   60.44922
1109   0.05910   0.01090   0.01068   1.00000   0.05910   0.01090   0.01068   1.00000   60.46448
1110   0.05896   0.00906   0.01163   1.00000   0.05896   0.00906   0.01163   1.00000   60.52551
1111   0.05899   0.01224   0.00830   1.00000   0.05899   0.01224   0.00830   1.00000   60.43701
1112   0.05906   0.00928   0.00967   1.00000   0.05906   0.00928   0.00967   1.00000   60.42175
1113   0.05901   0.00851   0.01025   1.00000   0.05901   0.00851   0.01025   1.00000   60.49500
1114   0.05896   0.01154   0.00967   1.00000   0.05896   0.01154   0.00967   1.00000   60.52551
1115   0.05903   0.01166   0.00885   1.00000   0.05903   0.01166   0.00885   1.00000   60.55298
1116   0.05914   0.01138   0.00830   1.00000   0.05914   0.01138   0.00830   1.00000   60.36377
1117   0.05906   0.01157   0.01044   1.00000   0.05906   0.01157   0.01044   1.00000   60.50110
1118   0.05903   0.01251   0.01056   1.00000   0.05903   0.01251   0.01056   1.00000   60.55298
1119   0.05908   0.01038   0.01044   1.00000   0.05908   0.01038   0.01044   1.00000   60.52856
1120   0.05915   0.01227   0.00986   1.00000   0.05915   0.01227   0.00986   1.00000   60.43091
1121   0.05906   0.01129   0.01041   1.00000   0.05906   0.01129   0.01041   1.00000   60.45532
1122   0.05902   0.01077   0.00861   1.00000   0.05902   0.01077   0.00861   1.00000   60.39124
1123   0.05902   0.01141   0.00803   1.00000   0.05902   0.01141   0.00803   1.00000   60.44006
1124   0.05905   0.01132   0.00897   1.00000   0.05905   0.01132   0.00897   1.00000   60.41565
1125   0.05900   0.01022   0.00870   1.00000   0.05900   0.01022   0.00870   1.00000   60.44312
1126   0.05902   0.00980   0.01105   1.00000   0.05902   0.00980   0.01105   1.00000   60.47058
1127   0.05908   0.01135   0.00864   1.00000   0.05908   0.01135   0.00864   1.00000   60.38818
1128   0.05913   0.01355   0.00888   1.00000   0.05913   0.01355   0.00888   1.00000   60.43396
1129   0.05909   0.01175   0.00806   1.00000   0.05909   0.01175   0.00806   1.00000   60.37903
1130   0.05914   0.01190   0.00772   1.00000   0.05914   0.01190   0.00772   1.00000   60.50415
1131   0.05910   0.01117   0.01071   1.00000   0.05910   0.01117   0.01071   1.00000   60.49500
1132   0.05910   0.01193   0.00949   1.00000   0.05910   0.01193   0.00949   1.00000   60.51025
1133   0.05910   0.01013   0.01120   1.00000   0.05910   0.01013   0.01120   1.00000   60.51025
1134   0.05915   0.01135   0.01166   1.00000   0.05915   0.01135   0.01166   1.00000   60.50110
1135   0.05903   0.01059   0.00955   1.00000   0.05903   0.01059   0.00955   1.00000   60.46143
1136   0.05902   0.01358   0.00845   1.00000   0.05902   0.01358   0.00845   1.00000   60.39124
1137   0.05902   0.01035   0.01096   1.00000   0.05902   0.01035   0.01096   1.00000   60.42480
1138   0.05910   0.01032   0.01138   1.00000   0.05910   0.01032   0.01138   1.00000   60.47974
1139   0.05905   0.00983   0.01138   1.00000   0.05905   0.00983   0.01138   1.00000   60.39429
1140   0.05902   0.01013   0.00964   1.00000   0.05902   0.01013   0.00964   1.00000   60.42480
1141   0.05906   0.01065   0.01035   1.00000   0.05906   0.01065   0.01035   1.00000   60.45532
1142   0.05913   0.01190   0.01093   1.00000   0.05913   0.01190   0.01093   1.00000   60.54382
1143   0.05905   0.01074   0.01227   1.00000   0.05905   0.01074   0.01227   1.00000   60.49500
1144   0.05902   0.01193   0.01196   1.00000   0.05902   0.01193   0.01196   1.00000   60.53162
1145   0.05906   0.00964   0.01102   1.00000   0.05906   0.00964   0.01102   1.00000   60.54688
1146   0.05912   0.01175   0.01013   1.00000   0.05912   0.01175   0.01013   1.00000   60.33630
1147   0.05894   0.01108   0.01013   1.00000   0.05894   0.01108   0.01013   1.00000   60.49194
1148   0.05896   0.01111   0.00946   1.00000   0.05896   0.01111   0.00946   1.00000   60.49500
1149   0.05906   0.00998   0.00913   1.00000   0.05906   0.00998   0.00913   1.00000   60.42175
1150   0.05907   0.00916   0.00888   1.00000   0.05907   0.00916   0.00888   1.00000   60.42786
1151   0.05897   0.01157   0.00647   1.00000   0.05897   0.01157   0.00647   1.00000   60.47058
1152   0.05881   0.01175   0.00754   1.00000   0.05881   0.01175   0.00754   1.00000   60.39124
1153   0.05902   0.00922   0.01068   1.00000   0.05902   0.00922   0.01068   1.00000   60.42480
1154   0.05916   0.01202   0.00995   1.00000   0.05916   0.01202   0.00995   1.00000   60.49194
1155   0.05904   0.01138   0.00916   1.00000   0.05904   0.01138   0.00916   1.00000   60.51331
1156   0.05895   0.00989   0.00980   1.00000   0.05895   0.00989   0.00980   1.00000   60.54382
1157   0.05905   0.01004   0.00882   1.00000   0.05905   0.01004   0.00882   1.00000   60.40039
1158   0.05905   0.01083   0.01053   1.00000   0.05905   0.01083   0.01053   1.00000   60.44312
1159   0.05891   0.00858   0.01209   1.00000   0.05891   0.00858   0.01209   1.00000   60.53772
1160   0.05900   0.01172   0.01016   1.00000   0.05900   0.01172   0.01016   1.00000   60.45837
1161   0.05902   0.01337   0.01038   1.00000   0.05902   0.01337   0.01038   1.00000   60.42480
1162   0.05903   0.01090   0.01199   1.00000   0.05903   0.01090   0.01199   1.00000   60.43091
1163   0.05898   0.00824   0.00946   1.00000   0.05898   0.00824   0.00946   1.00000   60.40039
1164   0.05906   0.01279   0.01123   1.00000   0.05906   0.01279   0.01123   1.00000   60.51636
1165   0.05906   0.01215   0.00970   1.00000   0.05906   0.01215   0.00970   1.00000   60.48584
1166   0.05905   0.01163   0.00870   1.00000   0.05905   0.01163   0.00870   1.00000   60.46448
1167   0.05904   0.01175   0.00855   1.00000   0.05904   0.01175   0.00855   1.00000   60.51331
1168   0.05915   0.01215   0.01047   1.00000   0.05915   0.01215   0.01047   1.00000   60.49500
1169   0.05918   0.01364   0.00903   1.00000   0.05918   0.01364   0.00903   1.00000   60.42480
1170   0.05905   0.01242   0.01105   1.00000   0.05905   0.01242   0.01105   1.00000   60.43396
1171   0.05901   0.01209   0.01135   1.00000   0.05901   0.01209   0.01135   1.00000   60.46448
1172   0.05910   0.00992   0.00974   1.00000   0.05910   0.00992   0.00974   1.00000   60.40039
1173   0.05911   0.01267   0.00928   1.00000   0.05911   0.01267   0.00928   1.00000   60.45532
1174   0.05909   0.01328   0.01080   1.00000   0.05909   0.01328   0.01080   1.00000   60.51941
1175   0.05908   0.01016   0.01123   1.00000   0.05908   0.01016   0.01123   1.00000   60.51331
1176   0.05912   0.01138   0.01056   1.00000   0.05912   0.01138   0.01056   1.00000   60.46143
1177   0.05909   0.01132   0.00864   1.00000   0.05909   0.01132   0.00864   1.00000   60.40955
1178   0.05908   0.01202   0.01001   1.00000   0.05908   0.01202   0.01001   1.00000   60.52856
1179   0.05912   0.01172   0.01138   1.00000   0.05912   0.01172   0.01138   1.00000   60.52246
1180   0.05912   0.01376   0.00989   1.00000   0.05912   0.01376   0.00989   1.00000   60.44312
1181   0.05904   0.01312   0.00983   1.00000   0.05904   0.01312   0.00983   1.00000   60.49805
1182   0.05898   0.00980   0.01074   1.00000   0.05898   0.00980   0.01074   1.00000   60.52246
1183   0.05903   0.01117   0.00882   1.00000   0.05903   0.01117   0.00882   1.00000   60.43091
1184   0.05900   0.01096   0.00815   1.00000   0.05900   0.01096   0.00815   1.00000   60.42786
1185   0.05900   0.01151   0.01032   1.00000   0.05900   0.01151   0.01032   1.00000   60.47363
1186   0.05906   0.01166   0.01093   1.00000   0.05906   0.01166   0.01093   1.00000   60.53162
1187   0.05909   0.01157   0.01187   1.00000   0.05909   0.01157   0.01187   1.00000   60.50415
1188   0.05904   0.01169   0.00952   1.00000   0.05904   0.01169   0.00952   1.00000   60.48279
1189   0.05901   0.01288   0.00983   1.00000   0.05901   0.01288   0.00983   1.00000   60.46448
1190   0.05914   0.01303   0.01074   1.00000   0.05914   0.01303   0.01074   1.00000   60.44006
1191   0.05915   0.01157   0.01007   1.00000   0.05915   0.01157   0.01007   1.00000   60.46143
1192   0.05905   0.01224   0.01053   1.00000   0.05905   0.01224   0.01053   1.00000   60.49500
1193   0.05900   0.01270   0.01077   1.00000   0.05900   0.01270   0.01077   1.00000   60.53467
1194   0.05905   0.01135   0.01187   1.00000   0.05905   0.01135   0.01187   1.00000   60.44922
1195   0.05908   0.01123   0.00958   1.00000   0.05908   0.01123   0.00958   1.00000   60.43396
1196   0.05899   0.01050   0.00970   1.00000   0.05899   0.01050   0.00970   1.00000   60.40649
1197   0.05901   0.01254   0.01123   1.00000   0.05901   0.01254   0.01123   1.00000   60.49500
1198   0.05910   0.01123   0.01038   1.00000   0.05910   0.01123   0.01038   1.00000   60.47974
1199   0.05908   0.01108   0.00974   1.00000   0.05908   0.01108   0.00974   1.00000   60.40344
1200   0.05902   0.01382   0.01041   1.00000   0.05902   0.01382   0.01041   1.00000   60.57739
1201   0.05905   0.01007   0.00977   1.00000   0.05905   0.01007   0.00977   1.00000   60.57129
1202   0.05912   0.01151   0.01328   1.00000   0.05912   0.01151   0.01328   1.00000   60.55298
1203   0.05910   0.01108   0.01117   1.00000   0.05910   0.01108   0.01117   1.00000   60.43091
1204   0.05906   0.01205   0.00922   1.00000   0.05906   0.01205   0.00922   1.00000   60.47058
1205   0.05905   0.01239   0.01007   1.00000   0.05905   0.01239   0.01007   1.00000   60.52551
1206   0.05903   0.01108   0.01263   1.00000   0.05903   0.01108   0.01263   1.00000   60.50720
1207   0.05906   0.01169   0.01077   1.00000   0.05906   0.01169   0.01077   1.00000   60.39124
1208   0.05901   0.01151   0.00821   1.00000   0.05901   0.01151   0.00821   1.00000   60.49500
1209   0.05907   0.01358   0.01147   1.00000   0.05907   0.01358   0.01147   1.00000   60.52246
1210   0.05912   0.01187   0.00787   1.00000   0.05912   0.01187   0.00787   1.00000   60.41260
1211   0.05905   0.01172   0.01096   1.00000   0.05905   0.01172   0.01096   1.00000   60.47974
1212   0.05909   0.01456   0.00903   1.00000   0.05909   0.01456   0.00903   1.00000   60.42480
1213   0.05912   0.01300   0.01154   1.00000   0.05912   0.01300   0.01154   1.00000   60.55298
1214   0.05908   0.01212   0.01001   1.00000   0.05908   0.01212   0.01001   1.00000   60.46753
1215   0.05911   0.01596   0.00903   1.00000   0.05911   0.01596   0.00903   1.00000   60.47058
1216   0.05908   0.01086   0.00858   1.00000   0.05908   0.01086   0.00858   1.00000   60.51331
1217   0.05908   0.01358   0.01004   1.00000   0.05908   0.01358   0.01004   1.00000   60.48279
1218   0.05902   0.01373   0.01041   1.00000   0.05902   0.01373   0.01041   1.00000   60.39124
1219   0.05904   0.01376   0.01025   1.00000   0.05904   0.01376   0.01025   1.00000   60.48279
1220   0.05908   0.01138   0.00946   1.00000   0.05908   0.01138   0.00946   1.00000   60.43396
1221   0.05910   0.01251   0.00781   1.00000   0.05910   0.01251   0.00781   1.00000   60.32410
1222   0.05904   0.01273   0.00995   1.00000   0.05904   0.01273   0.00995   1.00000   60.43701
1223   0.05906   0.01325   0.01288   1.00000   0.05906   0.01325   0.01288   1.00000   60.56213
1224   0.05912   0.01297   0.00961   1.00000   0.05912   0.01297   0.00961   1.00000   60.44312
1225   0.05910   0.01230   0.00891   1.00000   0.05910   0.01230   0.00891   1.00000   60.51025
1226   0.05906   0.01291   0.01062   1.00000   0.05906   0.01291   0.01062   1.00000   60.47058
1227   0.05910   0.01172   0.01205   1.00000   0.05910   0.01172   0.01205   1.00000   60.49500
1228   0.05914   0.00986   0.00906   1.00000   0.05914   0.00986   0.00906   1.00000   60.45532
1229   0.05903   0.01062   0.01276   1.00000   0.05903   0.01062   0.01276   1.00000   60.47668
1230   0.05894   0.01273   0.00967   1.00000   0.05894   0.01273   0.00967   1.00000   60.53772
1231   0.05909   0.01370   0.00989   1.00000   0.05909   0.01370   0.00989   1.00000   60.50415
1232   0.05905   0.01239   0.01071   1.00000   0.05905   0.01239   0.01071   1.00000   60.50415
1233   0.05890   0.01291   0.00797   1.00000   0.05890   0.01291   0.00797   1.00000   60.40649
1234   0.05897   0.01123   0.01108   1.00000   0.05897   0.01123   0.01108   1.00000   60.53162
1235   0.05920   0.01358   0.01190   1.00000   0.05920   0.01358   0.01190   1.00000   60.49805
1236   0.05915   0.01239   0.01209   1.00000   0.05915   0.01239   0.01209   1.00000   60.45227
1237   0.05905   0.01236   0.00974   1.00000   0.05905   0.01236   0.00974   1.00000   60.59570
1238   0.05904   0.01364   0.01151   1.00000   0.05904   0.01364   0.01151   1.00000   60.49805
1239   0.05918   0.01349   0.01108   1.00000   0.05918   0.01349   0.01108   1.00000   60.51941
1240   0.05915   0.01062   0.00964   1.00000   0.05915   0.01062   0.00964   1.00000   60.44617
1241   0.05902   0.01334   0.01083   1.00000   0.05902   0.01334   0.01083   1.00000   60.53162
1242   0.05901   0.01300   0.00952   1.00000   0.05901   0.01300   0.00952   1.00000   60.38513
1243   0.05914   0.01407   0.01022   1.00000   0.05914   0.01407   0.01022   1.00000   60.42480
1244   0.05912   0.01297   0.01025   1.00000   0.05912   0.01297   0.01025   1.00000   60.41260
1245   0.05905   0.01315   0.00888   1.00000   0.05905   0.01315   0.00888   1.00000   60.53467
1246   0.05905   0.01303   0.01190   1.00000   0.05905   0.01303   0.01190   1.00000   60.55603
1247   0.05916   0.01312   0.00946   1.00000   0.05916   0.01312   0.00946   1.00000   60.42786
1248   0.05912   0.01187   0.00851   1.00000   0.05912   0.01187   0.00851   1.00000   60.36682
1249   0.05906   0.01382   0.00974   1.00000   0.05906   0.01382   0.00974   1.00000   60.56213
1250   0.05909   0.01205   0.01209   1.00000   0.05909   0.01205   0.01209   1.00000   60.50415
1251   0.05916   0.01227   0.01016   1.00000   0.05916   0.01227   0.01016   1.00000   60.41260
1252   0.05914   0.01120   0.01083   1.00000   0.05914   0.01120   0.01083   1.00000   60.58044
1253   0.05907   0.01202   0.01050   1.00000   0.05907   0.01202   0.01050   1.00000   60.38208
1254   0.05895   0.01309   0.00940   1.00000   0.05895   0.01309   0.00940   1.00000   60.49805
1255   0.05906   0.01453   0.01016   1.00000   0.05906   0.01453   0.01016   1.00000   60.51636
1256   0.05911   0.01077   0.01096   1.00000   0.05911   0.01077   0.01096   1.00000   60.53162
1257   0.05912   0.01147   0.01120   1.00000   0.05912   0.01147   0.01120   1.00000   60.59875
1258   0.05910   0.01230   0.01035   1.00000   0.05910   0.01230   0.01035   1.00000   60.54077
1259   0.05905   0.01251   0.01090   1.00000   0.05905   0.01251   0.01090   1.00000   60.51025
1260   0.05908   0.01236   0.01102   1.00000   0.05908   0.01236   0.01102   1.00000   60.46753
1261   0.05914   0.01276   0.01086   1.00000   0.05914   0.01276   0.01086   1.00000   60.50415
1262   0.05914   0.01361   0.01321   1.00000   0.05914   0.01361   0.01321   1.00000   60.44006
1263   0.05908   0.01270   0.00992   1.00000   0.05908   0.01270   0.00992   1.00000   60.41870
1264   0.05902   0.01321   0.01321   1.00000   0.05902   0.01321   0.01321   1.00000   60.61096
1265   0.05907   0.01434   0.00949   1.00000   0.05907   0.01434   0.00949   1.00000   60.44617
1266   0.05905   0.01260   0.00882   1.00000   0.05905   0.01260   0.00882   1.00000   60.44922
1267   0.05901   0.01291   0.01126   1.00000   0.05901   0.01291   0.01126   1.00000   60.47974
1268   0.05911   0.01276   0.01154   1.00000   0.05911   0.01276   0.01154   1.00000   60.50110
1269   0.05917   0.01273   0.01260   1.00000   0.05917   0.01273   0.01260   1.00000   60.51331
1270   0.05895   0.01160   0.01242   1.00000   0.05895   0.01160   0.01242   1.00000   60.44312
1271   0.05894   0.01147   0.01276   1.00000   0.05894   0.01147   0.01276   1.00000   60.52246
1272   0.05916   0.01331   0.01013   1.00000   0.05916   0.01331   0.01013   1.00000   60.49194
1273   0.05918   0.01193   0.00946   1.00000   0.05918   0.01193   0.00946   1.00000   60.44006
1274   0.05901   0.01187   0.01035   1.00000   0.05901   0.01187   0.01035   1.00000   60.44922
1275   0.05898   0.01071   0.01102   1.00000   0.05898   0.01071   0.01102   1.00000   60.43091
1276   0.05913   0.01325   0.01108   1.00000   0.05913   0.01325   0.01108   1.00000   60.51331
1277   0.05908   0.01328   0.01209   1.00000   0.05908   0.01328   0.01209   1.00000   60.45227
1278   0.05900   0.01416   0.00934   1.00000   0.05900   0.01416   0.00934   1.00000   60.51941
1279   0.05895   0.01447   0.01117   1.00000   0.05895   0.01447   0.01117   1.00000   60.59265
1280   0.05912   0.01444   0.01138   1.00000   0.05912   0.01444   0.01138   1.00000   60.47668
1281   0.05912   0.01199   0.01257   1.00000   0.05912   0.01199   0.01257   1.00000   60.36682
1282   0.05905   0.01260   0.01202   1.00000   0.05905   0.01260   0.01202   1.00000   60.50415
1283   0.05903   0.01407   0.01044   1.00000   0.05903   0.01407   0.01044   1.00000   60.63232
1284   0.05912   0.01035   0.01364   1.00000   0.05912   0.01035   0.01364   1.00000   60.53772
1285   0.05911   0.01209   0.01175   1.00000   0.05911   0.01209   0.01175   1.00000   60.48584
1286   0.05907   0.01413   0.01138   1.00000   0.05907   0.01413   0.01138   1.00000   60.47668
1287   0.05905   0.01099   0.01151   1.00000   0.05905   0.01099   0.01151   1.00000   60.51025
1288   0.05910   0.01184   0.01157   1.00000   0.05910   0.01184   0.01157   1.00000   60.55603
1289   0.05904   0.01303   0.01144   1.00000   0.05904   0.01303   0.01144   1.00000   60.48279
1290   0.05898   0.01205   0.01215   1.00000   0.05898   0.01205   0.01215   1.00000   60.58655
1291   0.05905   0.01147   0.01285   1.00000   0.05905   0.01147   0.01285   1.00000   60.52551
1292   0.05909   0.01129   0.01184   1.00000   0.05909   0.01129   0.01184   1.00000   60.47363
1293   0.05908   0.01410   0.01090   1.00000   0.05908   0.01410   0.01090   1.00000   60.41870
1294   0.05905   0.01331   0.01114   1.00000   0.05905   0.01331   0.01114   1.00000   60.53467
1295   0.05913   0.01331   0.01047   1.00000   0.05913   0.01331   0.01047   1.00000   60.51331
1296   0.05915   0.01419   0.01071   1.00000   0.05915   0.01419   0.01071   1.00000   60.41565
1297   0.05910   0.01288   0.00980   1.00000   0.05910   0.01288   0.00980   1.00000   60.40039
1298   0.05908   0.01267   0.00977   1.00000   0.05908   0.01267   0.00977   1.00000   60.57434
1299   0.05910   0.01230   0.00891   1.00000   0.05910   0.01230   0.00891   1.00000   60.51025
1300   0.05906   0.01431   0.00916   1.00000   0.05906   0.01431   0.00916   1.00000   60.48584
1301   0.05895   0.01138   0.00949   1.00000   0.05895   0.01138   0.00949   1.00000   60.53467
1302   0.05905   0.01389   0.00943   1.00000   0.05905   0.01389   0.00943   1.00000   60.55603
1303   0.05907   0.01288   0.00995   1.00000   0.05907   0.01288   0.00995   1.00000   60.53772
1304   0.05905   0.01337   0.01050   1.00000   0.05905   0.01337   0.01050   1.00000   60.51025
1305   0.05905   0.01306   0.01013   1.00000   0.05905   0.01306   0.01013   1.00000   60.51941
1306   0.05914   0.01352   0.01001   1.00000   0.05914   0.01352   0.01001   1.00000   60.48889
1307   0.05909   0.01233   0.01068   1.00000   0.05909   0.01233   0.01068   1.00000   60.50415
1308   0.05908   0.01318   0.01062   1.00000   0.05908   0.01318   0.01062   1.00000   60.49805
1309   0.05907   0.01303   0.01111   1.00000   0.05907   0.01303   0.01111   1.00000   60.46143
1310   0.05913   0.01099   0.01016   1.00000   0.05913   0.01099   0.01016   1.00000   60.52856
1311   0.05909   0.01367   0.00812   1.00000   0.05909   0.01367   0.00812   1.00000   60.54993
1312   0.05902   0.01245   0.00977   1.00000   0.05902   0.01245   0.00977   1.00000   60.53162
1313   0.05898   0.01431   0.01175   1.00000   0.05898   0.01431   0.01175   1.00000   60.63232
1314   0.05910   0.01352   0.01178   1.00000   0.05910   0.01352   0.01178   1.00000   60.51025
1315   0.05906   0.01245   0.00864   1.00000   0.05906   0.01245   0.00864   1.00000   60.44006
1316   0.05903   0.01325   0.01065   1.00000   0.05903   0.01325   0.01065   1.00000   60.50720
1317   0.05906   0.01373   0.01038   1.00000   0.05906   0.01373   0.01038   1.00000   60.60791
1318   0.05915   0.01263   0.01022   1.00000   0.05915   0.01263   0.01022   1.00000   60.38513
1319   0.05908   0.01315   0.01013   1.00000   0.05908   0.01315   0.01013   1.00000   60.43396
1320   0.05900   0.01218   0.01086   1.00000   0.05900   0.01218   0.01086   1.00000   60.56519
1321   0.05912   0.01645   0.01083   1.00000   0.05912   0.01645   0.01083   1.00000   60.58350
1322   0.05915   0.01227   0.00986   1.00000   0.05915   0.01227   0.00986   1.00000   60.43091
1323   0.05906   0.01215   0.01212   1.00000   0.05906   0.01215   0.01212   1.00000   60.45532
1324   0.05901   0.01373   0.01056   1.00000   0.05901   0.01373   0.01056   1.00000   60.51025
1325   0.05904   0.01498   0.01038   1.00000   0.05904   0.01498   0.01038   1.00000   60.54382
1326   0.05914   0.01715   0.00980   1.00000   0.05914   0.01715   0.00980   1.00000   60.48889
1327   0.05903   0.01703   0.01077   1.00000   0.05903   0.01703   0.01077   1.00000   60.60181
1328   0.05901   0.01288   0.00772   1.00000   0.05901   0.01288   0.00772   1.00000   60.47974
1329   0.05908   0.01212   0.01144   1.00000   0.05908   0.01212   0.01144   1.00000   60.49805
1330   0.05914   0.01459   0.01093   1.00000   0.05914   0.01459   0.01093   1.00000   60.48889
1331   0.05904   0.01236   0.01117   1.00000   0.05904   0.01236   0.01117   1.00000   60.60791
1332   0.05907   0.01315   0.01175   1.00000   0.05907   0.01315   0.01175   1.00000   60.58350
1333   0.05922   0.01520   0.00967   1.00000   0.05922   0.01520   0.00967   1.00000   60.54382
1334   0.05920   0.01401   0.01019   1.00000   0.05920   0.01401   0.01019   1.00000   60.42175
1335   0.05905   0.01422   0.01044   1.00000   0.05905   0.01422   0.01044   1.00000   60.49500
1336   0.05900   0.01202   0.01389   1.00000   0.05900   0.01202   0.01389   1.00000   60.58044
1337   0.05903   0.01337   0.01404   1.00000   0.05903   0.01337   0.01404   1.00000   60.53772
1338   0.05905   0.01440   0.01209   1.00000   0.05905   0.01440   0.01209   1.00000   60.50415
1339   0.05901   0.01367   0.01263   1.00000   0.05901   0.01367   0.01263   1.00000   60.55603
1340   0.05906   0.01196   0.01239   1.00000   0.05906   0.01196   0.01239   1.00000   60.57739
1341   0.05907   0.01489   0.01068   1.00000   0.05907   0.01489   0.01068   1.00000   60.56824
1342   0.05904   0.01349   0.00842   1.00000   0.05904   0.01349   0.00842   1.00000   60.45227
1343   0.05907   0.01633   0.01053   1.00000   0.05907   0.01633   0.01053   1.00000   60.49194
1344   0.05909   0.01288   0.01282   1.00000   0.05909   0.01288   0.01282   1.00000   60.56519
1345   0.05908   0.01309   0.01126   1.00000   0.05908   0.01309   0.01126   1.00000   60.52856
1346   0.05905   0.01260   0.01090   1.00000   0.05905   0.01260   0.01090   1.00000   60.44922
1347   0.05908   0.01212   0.01001   1.00000   0.05908   0.01212   0.01001   1.00000   60.46753
1348   0.05905   0.01386   0.00961   1.00000   0.05905   0.01386   0.00961   1.00000   60.44922
1349   0.05899   0.01431   0.01065   1.00000   0.05899   0.01431   0.01065   1.00000   60.57434
1350   0.05899   0.01242   0.00995   1.00000   0.05899   0.01242   0.00995   1.00000   60.45227
1351   0.05904   0.01517   0.01233   1.00000   0.05904   0.01517   0.01233   1.00000   60.52856
1352   0.05882   0.01114   0.01163   1.00000   0.05882   0.01114   0.01163   1.00000   60.55908
1353   0.05897   0.01529   0.01028   1.00000   0.05897   0.01529   0.01028   1.00000   60.50110
1354   0.05911   0.01511   0.01019   1.00000   0.05911   0.01511   0.01019   1.00000   60.53162
1355   0.05911   0.01099   0.01099   1.00000   0.05911   0.01099   0.01099   1.00000   60.60791
1356   0.05899   0.01254   0.01123   1.00000   0.05899   0.01254   0.01123   1.00000   60.51331
1357   0.05899   0.01267   0.01126   1.00000   0.05899   0.01267   0.01126   1.00000   60.43701
1358   0.05908   0.01410   0.01248   1.00000   0.05908   0.01410   0.01248   1.00000   60.55908
1359   0.05910   0.01297   0.00818   1.00000   0.05910   0.01297   0.00818   1.00000   60.44922
1360   0.05895   0.01386   0.01190   1.00000   0.05895   0.01386   0.01190   1.00000   60.63843
1361   0.05890   0.01205   0.00961   1.00000   0.05890   0.01205   0.00961   1.00000   60.56213
1362   0.05904   0.01358   0.00894   1.00000   0.05904   0.01358   0.00894   1.00000   60.46753
1363   0.05911   0.01349   0.01065   1.00000   0.05911   0.01349   0.01065   1.00000   60.50110
1364   0.05900   0.01236   0.01105   1.00000   0.05900   0.01236   0.01105   1.00000   60.53467
1365   0.05899   0.01315   0.01065   1.00000   0.05899   0.01315   0.01065   1.00000   60.57434
1366   0.05912   0.01596   0.00983   1.00000   0.05912   0.01596   0.00983   1.00000   60.52246
1367   0.05914   0.01312   0.01267   1.00000   0.05914   0.01312   0.01267   1.00000   60.47363
1368   0.05913   0.01447   0.01221   1.00000   0.05913   0.01447   0.01221   1.00000   60.51331
1369   0.05909   0.01129   0.01151   1.00000   0.05909   0.01129   0.01151   1.00000   60.50415
1370   0.05913   0.01425   0.01120   1.00000   0.05913   0.01425   0.01120   1.00000   60.49805
1371   0.05913   0.01450   0.01285   1.00000   0.05913   0.01450   0.01285   1.00000   60.43396
1372   0.05904   0.01361   0.01053   1.00000   0.05904   0.01361   0.01053   1.00000   60.58960
1373   0.05906   0.01209   0.01178   1.00000   0.05906   0.01209   0.01178   1.00000   60.51636
1374   0.05909   0.01306   0.01044   1.00000   0.05909   0.01306   0.01044   1.00000   60.47363
1375   0.05912   0.01431   0.00946   1.00000   0.05912   0.01431   0.00946   1.00000   60.42786
1376   0.05905   0.01462   0.01032   1.00000   0.05905   0.01462   0.01032   1.00000   60.58044
1377   0.05911   0.01303   0.01090   1.00000   0.05911   0.01303   0.01090   1.00000   60.56213
1378   0.05914   0.01215   0.01111   1.00000   0.05914   0.01215   0.01111   1.00000   60.47363
1379   0.05915   0.01267   0.01053   1.00000   0.05915   0.01267   0.01053   1.00000   60.35461
1380   0.05909   0.01444   0.01108   1.00000   0.05909   0.01444   0.01108   1.00000   60.50415
1381   0.05914   0.01425   0.01169   1.00000   0.05914   0.01425   0.01169   1.00000   60.56519
1382   0.05914   0.01221   0.01050   1.00000   0.05914   0.01221   0.01050   1.00000   60.44006
1383   0.05909   0.01581   0.00949   1.00000   0.05909   0.01581   0.00949   1.00000   60.45837
1384   0.05899   0.01321   0.01099   1.00000   0.05899   0.01321   0.01099   1.00000   60.51331
1385   0.05907   0.01367   0.01166   1.00000   0.05907   0.01367   0.01166   1.00000   60.55298
1386   0.05907   0.01581   0.01141   1.00000   0.05907   0.01581   0.01141   1.00000   60.56824
1387   0.05905   0.01611   0.00858   1.00000   0.05905   0.01611   0.00858   1.00000   60.55603
1388   0.05904   0.01401   0.01202   1.00000   0.05904   0.01401   0.01202   1.00000   60.54382
1389   0.05911   0.01364   0.01129   1.00000   0.05911   0.01364   0.01129   1.00000   60.57739
1390   0.05909   0.01355   0.00891   1.00000   0.05909   0.01355   0.00891   1.00000   60.45837
1391   0.05908   0.01575   0.00885   1.00000   0.05908   0.01575   0.00885   1.00000   60.54382
1392   0.05914   0.01379   0.01099   1.00000   0.05914   0.01379   0.01099   1.00000   60.47363
1393   0.05914   0.01440   0.01108   1.00000   0.05914   0.01440   0.01108   1.00000   60.48889
1394   0.05905   0.01257   0.01120   1.00000   0.05905   0.01257   0.01120   1.00000   60.44922
1395   0.05904   0.01288   0.01093   1.00000   0.05904   0.01288   0.01093   1.00000   60.48279
1396   0.05907   0.01386   0.01105   1.00000   0.05907   0.01386   0.01105   1.00000   60.46143
1397   0.05912   0.01727   0.01062   1.00000   0.05912   0.01727   0.01062   1.00000   60.49194
1398   0.05902   0.01251   0.01285   1.00000   0.05902   0.01251   0.01285   1.00000   60.42480
1399   0.05905   0.01468   0.01080   1.00000   0.05905   0.01468   0.01080   1.00000   60.62012
1400   0.05914   0.01291   0.01138   1.00000   0.05914   0.01291   0.01138   1.00000   60.47363
1401   0.05912   0.01538   0.00974   1.00000   0.05912   0.01538   0.00974   1.00000   60.49194
1402   0.05904   0.01337   0.01196   1.00000   0.05904   0.01337   0.01196   1.00000   60.54382
1403   0.05912   0.01602   0.01160   1.00000   0.05912   0.01602   0.01160   1.00000   60.49194
1404   0.05913   0.01172   0.01028   1.00000   0.05913   0.01172   0.01028   1.00000   60.46753
1405   0.05909   0.01205   0.01001   1.00000   0.05909   0.01205   0.01001   1.00000   60.50415
1406   0.05903   0.01389   0.01041   1.00000   0.05903   0.01389   0.01041   1.00000   60.52246
1407   0.05906   0.01270   0.01184   1.00000   0.05906   0.01270   0.01184   1.00000   60.54688
1408   0.05905   0.01395   0.00946   1.00000   0.05905   0.01395   0.00946   1.00000   60.51025
1409   0.05904   0.01459   0.01050   1.00000   0.05904   0.01459   0.01050   1.00000   60.48279
1410   0.05902   0.01502   0.00974   1.00000   0.05902   0.01502   0.00974   1.00000   60.59570
1411   0.05914   0.01578   0.00980   1.00000   0.05914   0.01578   0.00980   1.00000   60.40955
1412   0.05912   0.01273   0.00943   1.00000   0.05912   0.01273   0.00943   1.00000   60.52246
1413   0.05910   0.01465   0.00870   1.00000   0.05910   0.01465   0.00870   1.00000   60.38513
1414   0.05906   0.01318   0.01032   1.00000   0.05906   0.01318   0.01032   1.00000   60.53162
1415   0.05916   0.01459   0.00961   1.00000   0.05916   0.01459   0.00961   1.00000   60.55298
1416   0.05915   0.01312   0.00833   1.00000   0.05915   0.01312   0.00833   1.00000   60.40039
1417   0.05907   0.01294   0.00995   1.00000   0.05907   0.01294   0.00995   1.00000   60.49194
1418   0.05909   0.01358   0.01016   1.00000   0.05909   0.01358   0.01016   1.00000   60.59570
1419   0.05909   0.01398   0.01056   1.00000   0.05909   0.01398   0.01056   1.00000   60.50415
1420   0.05904   0.01215   0.01086   1.00000   0.05904   0.01215   0.01086   1.00000   60.31189
1421   0.05902   0.01486   0.00940   1.00000   0.05902   0.01486   0.00940   1.00000   60.48584
1422   0.05905   0.01120   0.00977   1.00000   0.05905   0.01120   0.00977   1.00000   60.59570
1423   0.05910   0.01465   0.00952   1.00000   0.05910   0.01465   0.00952   1.00000   60.43091
1424   0.05907   0.01340   0.01083   1.00000   0.05907   0.01340   0.01083   1.00000   60.44617
1425   0.05904   0.01297   0.01254   1.00000   0.05904   0.01297   0.01254   1.00000   60.55908
1426   0.05911   0.01364   0.01306   1.00000   0.05911   0.01364   0.01306   1.00000   60.57739
1427   0.05910   0.01395   0.01151   1.00000   0.05910   0.01395   0.01151   1.00000   60.46448
1428   0.05906   0.01367   0.00989   1.00000   0.05906   0.01367   0.00989   1.00000   60.56213
1429   0.05912   0.01352   0.01032   1.00000   0.05912   0.01352   0.01032   1.00000   60.47668
1430   0.05910   0.01300   0.00900   1.00000   0.05910   0.01300   0.00900   1.00000   60.46448
1431   0.05905   0.01685   0.01172   1.00000   0.05905   0.01685   0.01172   1.00000   60.42786
1432   0.05893   0.01465   0.01312   1.00000   0.05893   0.01465   0.01312   1.00000   60.58044
1433   0.05896   0.01617   0.00958   1.00000   0.05896   0.01617   0.00958   1.00000   60.51025
1434   0.05904   0.01306   0.01047   1.00000   0.05904   0.01306   0.01047   1.00000   60.51331
1435   0.05909   0.01251   0.01007   1.00000   0.05909   0.01251   0.01007   1.00000   60.42480
1436   0.05909   0.01340   0.01129   1.00000   0.05909   0.01340   0.01129   1.00000   60.53467
1437   0.05916   0.01389   0.01068   1.00000   0.05916   0.01389   0.01068   1.00000   60.39734
1438   0.05914   0.01352   0.01160   1.00000   0.05914   0.01352   0.01160   1.00000   60.39429
1439   0.05908   0.01453   0.01013   1.00000   0.05908   0.01453   0.01013   1.00000   60.51331
1440   0.05916   0.01483   0.00839   1.00000   0.05916   0.01483   0.00839   1.00000   60.44312
1441   0.05919   0.01556   0.01147   1.00000   0.05919   0.01556   0.01147   1.00000   60.54077
1442   0.05909   0.01450   0.01157   1.00000   0.05909   0.01450   0.01157   1.00000   60.54993
1443   0.05900   0.01370   0.01056   1.00000   0.05900   0.01370   0.01056   1.00000   60.53467
1444   0.05907   0.01376   0.01215   1.00000   0.05907   0.01376   0.01215   1.00000   60.58350
1445   0.05909   0.01639   0.01245   1.00000   0.05909   0.01639   0.01245   1.00000   60.54993
1446   0.05904   0.01141   0.00946   1.00000   0.05904   0.01141   0.00946   1.00000   60.45227
1447   0.05903   0.01334   0.01227   1.00000   0.05903   0.01334   0.01227   1.00000   60.55298
1448   0.05910   0.01236   0.01035   1.00000   0.05910   0.01236   0.01035   1.00000   60.49500
1449   0.05913   0.01093   0.01001   1.00000   0.05913   0.01093   0.01001   1.00000   60.46753
1450   0.05909   0.01312   0.01013   1.00000   0.05909   0.01312   0.01013   1.00000   60.44312
1451   0.05905   0.01260   0.01328   1.00000   0.05905   0.01260   0.01328   1.00000   60.65979
1452   0.05925   0.01306   0.01102   1.00000   0.05925   0.01306   0.01102   1.00000   60.54688
1453   0.05915   0.01114   0.01212   1.00000   0.05915   0.01114   0.01212   1.00000   60.51636
1454   0.05897   0.01529   0.00998   1.00000   0.05897   0.01529   0.00998   1.00000   60.51636
1455   0.05900   0.01465   0.01230   1.00000   0.05900   0.01465   0.01230   1.00000   60.45837
1456   0.05916   0.01382   0.01114   1.00000   0.05916   0.01382   0.01114   1.00000   60.53772
1457   0.05916   0.01413   0.00974   1.00000   0.05916   0.01413   0.00974   1.00000   60.50720
1458   0.05904   0.01321   0.01032   1.00000   0.05904   0.01321   0.01032   1.00000   60.52856
1459   0.05905   0.01489   0.01166   1.00000   0.05905   0.01489   0.01166   1.00000   60.53467
1460   0.05910   0.01071   0.01303   1.00000   0.05910   0.01071   0.01303   1.00000   60.57129
1461   0.05911   0.01141   0.01169   1.00000   0.05911   0.01141   0.01169   1.00000   60.48584
1462   0.05907   0.01181   0.01077   1.00000   0.05907   0.01181   0.01077   1.00000   60.52246
1463   0.05912   0.01325   0.00836   1.00000   0.05912   0.01325   0.00836   1.00000   60.56824
1464   0.05915   0.01300   0.00961   1.00000   0.05915   0.01300   0.00961   1.00000   60.40039
1465   0.05910   0.01498   0.01035   1.00000   0.05910   0.01498   0.01035   1.00000   60.51025
1466   0.05908   0.01456   0.00839   1.00000   0.05908   0.01456   0.00839   1.00000   60.48279
1467   0.05905   0.01196   0.00729   1.00000   0.05905   0.01196   0.00729   1.00000   60.42786
1468   0.05915   0.01434   0.00897   1.00000   0.05915   0.01434   0.00897   1.00000   60.54077
1469   0.05910   0.01538   0.01086   1.00000   0.05910   0.01538   0.01086   1.00000   60.54077
1470   0.05895   0.01230   0.01059   1.00000   0.05895   0.01230   0.01059   1.00000   60.53467
1471   0.05899   0.01227   0.01120   1.00000   0.05899   0.01227   0.01120   1.00000   60.46753
1472   0.05910   0.01340   0.00983   1.00000   0.05910   0.01340   0.00983   1.00000   60.49500
1473   0.05905   0.01477   0.01004   1.00000   0.05905   0.01477   0.01004   1.00000   60.46448
1474   0.05905   0.01263   0.01138   1.00000   0.05905   0.01263   0.01138   1.00000   60.50415
1475   0.05912   0.01367   0.00906   1.00000   0.05912   0.01367   0.00906   1.00000   60.46143
1476   0.05909   0.01239   0.01068   1.00000   0.05909   0.01239   0.01068   1.00000   60.45837
1477   0.05903   0.01386   0.01105   1.00000   0.05903   0.01386   0.01105   1.00000   60.50720
1478   0.05905   0.01260   0.01105   1.00000   0.05905   0.01260   0.01105   1.00000   60.55603
1479   0.05905   0.01404   0.00931   1.00000   0.05905   0.01404   0.00931   1.00000   60.34851
1480   0.05904   0.01312   0.01050   1.00000   0.05904   0.01312   0.01050   1.00000   60.46753
1481   0.05900   0.01267   0.01010   1.00000   0.05900   0.01267   0.01010   1.00000   60.61401
1482   0.05910   0.01511   0.01099   1.00000   0.05910   0.01511   0.01099   1.00000   60.60181
1483   0.05905   0.01260   0.01138   1.00000   0.05905   0.01260   0.01138   1.00000   60.53467
1484   0.05900   0.01370   0.00992   1.00000   0.05900   0.01370   0.00992   1.00000   60.58044
1485   0.05905   0.01297   0.01077   1.00000   0.05905   0.01297   0.01077   1.00000   60.54993
1486   0.05916   0.01483   0.00949   1.00000   0.05916   0.01483   0.00949   1.00000   60.49194
1487   0.05907   0.01590   0.01047   1.00000   0.05907   0.01590   0.01047   1.00000   60.56824
1488   0.05906   0.01233   0.01086   1.00000   0.05906   0.01233   0.01086   1.00000   60.39124
1489   0.05905   0.01321   0.01111   1.00000   0.05905   0.01321   0.01111   1.00000   60.58655
1490   0.05911   0.01157   0.01172   1.00000   0.05911   0.01157   0.01172   1.00000   60.39124
1491   0.05901   0.01398   0.00964   1.00000   0.05901   0.01398   0.00964   1.00000   60.38513
1492   0.05900   0.01477   0.00974   1.00000   0.05900   0.01477   0.00974   1.00000   60.54993
1493   0.05908   0.01373   0.00958   1.00000   0.05908   0.01373   0.00958   1.00000   60.51331
1494   0.05910   0.01428   0.00916   1.00000   0.05910   0.01428   0.00916   1.00000   60.49500
1495   0.05902   0.01093   0.00861   1.00000   0.05902   0.01093   0.00861   1.00000   60.51636
1496   0.05906   0.01386   0.01007   1.00000   0.05906   0.01386   0.01007   1.00000   60.53162
1497   0.05912   0.01251   0.01117   1.00000   0.05912   0.01251   0.01117   1.00000   60.44312
1498   0.05911   0.01361   0.00873   1.00000   0.05911   0.01361   0.00873   1.00000   60.51636
1499   0.05907   0.01456   0.00919   1.00000   0.05907   0.01456   0.00919   1.00000   60.53772
1500   0.05908   0.01297   0.01074   1.00000   0.05908   0.01297   0.01074   1.00000   60.52856
1501   0.05911   0.01224   0.00842   1.00000   0.05911   0.01224   0.00842   1.00000   60.47058
1502   0.05906   0.01212   0.01035   1.00000   0.05906   0.01212   0.01035   1.00000   60.47058
1503   0.05900   0.01389   0.01044   1.00000   0.05900   0.01389   0.01044   1.00000   60.53467
1504   0.05906   0.01285   0.01010   1.00000   0.05906   0.01285   0.01010   1.00000   60.44006
1505   0.05906   0.01263   0.00992   1.00000   0.05906   0.01263   0.00992   1.00000   60.47058
1506   0.05906   0.01221   0.01004   1.00000   0.05906   0.01221   0.01004   1.00000   60.42175
1507   0.05905   0.01190   0.01080   1.00000   0.05905   0.01190   0.01080   1.00000   60.49500
1508   0.05914   0.01404   0.01102   1.00000   0.05914   0.01404   0.01102   1.00000   60.51941
1509   0.05911   0.01517   0.01132   1.00000   0.05911   0.01517   0.01132   1.00000   60.53162
1510   0.05908   0.01349   0.01001   1.00000   0.05908   0.01349   0.01001   1.00000   60.54382
1511   0.05910   0.01361   0.01147   1.00000   0.05910   0.01361   0.01147   1.00000   60.47974
1512   0.05913   0.01205   0.01062   1.00000   0.05913   0.01205   0.01062   1.00000   60.44922
1513   0.05908   0.01309   0.01013   1.00000   0.05908   0.01309   0.01013   1.00000   60.48279
1514   0.05901   0.01227   0.00717   1.00000   0.05901   0.01227   0.00717   1.00000   60.35461
1515   0.05905   0.01187   0.00937   1.00000   0.05905   0.01187   0.00937   1.00000   60.47363
1516   0.05910   0.01141   0.00800   1.00000   0.05910   0.01141   0.00800   1.00000   60.36987
1517   0.05900   0.01270   0.00867   1.00000   0.05900   0.01270   0.00867   1.00000   60.54993
1518   0.05900   0.01447   0.01016   1.00000   0.05900   0.01447   0.01016   1.00000   60.61401
1519   0.05912   0.01279   0.00977   1.00000   0.05912   0.01279   0.00977   1.00000   60.46143
1520   0.05914   0.01468   0.01062   1.00000   0.05914   0.01468   0.01062   1.00000   60.44006
1521   0.05906   0.01395   0.00977   1.00000   0.05906   0.01395   0.00977   1.00000   60.48584
1522   0.05905   0.01373   0.01102   1.00000   0.05905   0.01373   0.01102   1.00000   60.57129
1523   0.05915   0.01151   0.00992   1.00000   0.05915   0.01151   0.00992   1.00000   60.38513
1524   0.05912   0.01178   0.01028   1.00000   0.05912   0.01178   0.01028   1.00000   60.42786
1525   0.05898   0.01386   0.01138   1.00000   0.05898   0.01386   0.01138   1.00000   60.52246
1526   0.05900   0.01224   0.01120   1.00000   0.05900   0.01224   0.01120   1.00000   60.50415
1527   0.05909   0.01349   0.00955   1.00000   0.05909   0.01349   0.00955   1.00000   60.44312
1528   0.05906   0.01218   0.01117   1.00000   0.05906   0.01218   0.01117   1.00000   60.50110
1529   0.05900   0.01123   0.00882   1.00000   0.05900   0.01123   0.00882   1.00000   60.41260
1530   0.05907   0.01267   0.00864   1.00000   0.05907   0.01267   0.00864   1.00000   60.53772
1531   0.05912   0.01154   0.01105   1.00000   0.05912   0.01154   0.01105   1.00000   60.44312
1532   0.05909   0.01196   0.01193   1.00000   0.05909   0.01196   0.01193   1.00000   60.45837
1533   0.05911   0.01163   0.00913   1.00000   0.05911   0.01163   0.00913   1.00000   60.51636
1534   0.05916   0.01187   0.00995   1.00000   0.05916   0.01187   0.00995   1.00000   60.58350
1535   0.05915   0.01428   0.00913   1.00000   0.05915   0.01428   0.00913   1.00000   60.45227
1536   0.05906   0.01221   0.01117   1.00000   0.05906   0.01221   0.01117   1.00000   60.45532
1537   0.05905   0.01541   0.01123   1.00000   0.05905   0.01541   0.01123   1.00000   60.54077
1538   0.05904   0.01294   0.01141   1.00000   0.05904   0.01294   0.01141   1.00000   60.54382
1539   0.05905   0.01221   0.00876   1.00000   0.05905   0.01221   0.00876   1.00000   60.51025
1540   0.05901   0.01431   0.00870   1.00000   0.05901   0.01431   0.00870   1.00000   60.44922
1541   0.05902   0.01358   0.01263   1.00000   0.05902   0.01358   0.01263   1.00000   60.61096
1542   0.05909   0.01273   0.01218   1.00000   0.05909   0.01273   0.01218   1.00000   60.48889
1543   0.05908   0.01151   0.01172   1.00000   0.05908   0.01151   0.01172   1.00000   60.45227
1544   0.05906   0.01373   0.00974   1.00000   0.05906   0.01373   0.00974   1.00000   60.40649
1545   0.05909   0.01407   0.01215   1.00000   0.05909   0.01407   0.01215   1.00000   60.58044
1546   0.05912   0.01410   0.01169   1.00000   0.05912   0.01410   0.01169   1.00000   60.44312
1547   0.05911   0.01303   0.01251   1.00000   0.05911   0.01303   0.01251   1.00000   60.45532
1548   0.05907   0.01440   0.01077   1.00000   0.05907   0.01440   0.01077   1.00000   60.55298
1549   0.05911   0.01251   0.01151   1.00000   0.05911   0.01251   0.01151   1.00000   60.43701
1550   0.05901   0.01242   0.01041   1.00000   0.05901   0.01242   0.01041   1.00000   60.52551
1551   0.05901   0.01431   0.00903   1.00000   0.05901   0.01431   0.00903   1.00000   60.43396
1552   0.05883   0.01321   0.01190   1.00000   0.05883   0.01321   0.01190   1.00000   60.45532
1553   0.05902   0.01163   0.01111   1.00000   0.05902   0.01163   0.01111   1.00000   60.44006
1554   0.05914   0.01346   0.01016   1.00000   0.05914   0.01346   0.01016   1.00000   60.39429
1555   0.05904   0.01151   0.00998   1.00000   0.05904   0.01151   0.00998   1.00000   60.48279
1556   0.05898   0.01440   0.01144   1.00000   0.05898   0.01440   0.01144   1.00000   60.58655
1557   0.05908   0.01343   0.01083   1.00000   0.05908   0.01343   0.01083   1.00000   60.43396
1558   0.05906   0.01358   0.00861   1.00000   0.05906   0.01358   0.00861   1.00000   60.48584
1559   0.05906   0.01331   0.00937   1.00000   0.05906   0.01331   0.00937   1.00000   60.50110
1560   0.05908   0.01099   0.01147   1.00000   0.05908   0.01099   0.01147   1.00000   60.48279
1561   0.05904   0.01294   0.01028   1.00000   0.05904   0.01294   0.01028   1.00000   60.49805
1562   0.05892   0.01196   0.00977   1.00000   0.05892   0.01196   0.00977   1.00000   60.47974
1563   0.05900   0.01138   0.00916   1.00000   0.05900   0.01138   0.00916   1.00000   60.51941
1564   0.05911   0.01367   0.00940   1.00000   0.05911   0.01367   0.00940   1.00000   60.43701
1565   0.05906   0.01227   0.00842   1.00000   0.05906   0.01227   0.00842   1.00000   60.47058
1566   0.05902   0.01361   0.00861   1.00000   0.05902   0.01361   0.00861   1.00000   60.48584
1567   0.05906   0.01288   0.01028   1.00000   0.05906   0.01288   0.01028   1.00000   60.51636
1568   0.05917   0.01071   0.01077   1.00000   0.05917   0.01071   0.01077   1.00000   60.41870
1569   0.05915   0.01077   0.01013   1.00000   0.05915   0.01077   0.01013   1.00000   60.44617
1570   0.05904   0.01285   0.01077   1.00000   0.05904   0.01285   0.01077   1.00000   60.63843
1571   0.05910   0.01190   0.01160   1.00000   0.05910   0.01190   0.01160   1.00000   60.51025
1572   0.05921   0.01422   0.00940   1.00000   0.05921   0.01422   0.00940   1.00000   60.44312
1573   0.05910   0.01111   0.00989   1.00000   0.05910   0.01111   0.00989   1.00000   60.49500
1574   0.05896   0.01144   0.00952   1.00000   0.05896   0.01144   0.00952   1.00000   60.47974
1575   0.05909   0.01279   0.00946   1.00000   0.05909   0.01279   0.00946   1.00000   60.48889
1576   0.05910   0.01141   0.00946   1.00000   0.05910   0.01141   0.00946   1.00000   60.40039
1577   0.05905   0.01306   0.01047   1.00000   0.05905   0.01306   0.01047   1.00000   60.51941
1578   0.05903   0.01392   0.01010   1.00000   0.05903   0.01392   0.01010   1.00000   60.52246
1579   0.05912   0.01416   0.00977   1.00000   0.05912   0.01416   0.00977   1.00000   60.53772
1580   0.05911   0.01129   0.00928   1.00000   0.05911   0.01129   0.00928   1.00000   60.37598
1581   0.05908   0.01300   0.00821   1.00000   0.05908   0.01300   0.00821   1.00000   60.41870
1582   0.05907   0.01462   0.01096   1.00000   0.05907   0.01462   0.01096   1.00000   60.50720
1583   0.05914   0.01233   0.01099   1.00000   0.05914   0.01233   0.01099   1.00000   60.45532
1584   0.05909   0.01331   0.00742   1.00000   0.05909   0.01331   0.00742   1.00000   60.36377
1585   0.05902   0.01251   0.01123   1.00000   0.05902   0.01251   0.01123   1.00000   60.50110
1586   0.05898   0.01123   0.01141   1.00000   0.05898   0.01123   0.01141   1.00000   60.49194
1587   0.05909   0.01199   0.00937   1.00000   0.05909   0.01199   0.00937   1.00000   60.36377
1588   0.05905   0.01187   0.00775   1.00000   0.05905   0.01187   0.00775   1.00000   60.34851
1589   0.05904   0.01346   0.00989   1.00000   0.05904   0.01346   0.00989   1.00000   60.49805
1590   0.05910   0.01209   0.01111   1.00000   0.05910   0.01209   0.01111   1.00000   60.54077
1591   0.05908   0.01132   0.01184   1.00000   0.05908   0.01132   0.01184   1.00000   60.45227
1592   0.05907   0.01309   0.00900   1.00000   0.05907   0.01309   0.00900   1.00000   60.42786
1593   0.05908   0.01178   0.00964   1.00000   0.05908   0.01178   0.00964   1.00000   60.51331
1594   0.05910   0.01325   0.01077   1.00000   0.05910   0.01325   0.01077   1.00000   60.54077
1595   0.05908   0.01419   0.01010   1.00000   0.05908   0.01419   0.01010   1.00000   60.51331
1596   0.05904   0.01563   0.00934   1.00000   0.05904   0.01563   0.00934   1.00000   60.52856
1597   0.05904   0.01254   0.00800   1.00000   0.05904   0.01254   0.00800   1.00000   60.45227
1598   0.05905   0.01468   0.01242   1.00000   0.05905   0.01468   0.01242   1.00000   60.51941
1599   0.05904   0.01483   0.00906   1.00000   0.05904   0.01483   0.00906   1.00000   60.51331
1600   0.05902   0.01132   0.00995   1.00000   0.05902   0.01132   0.00995   1.00000   60.39124
1601   0.05908   0.01273   0.00977   1.00000   0.05908   0.01273   0.00977   1.00000   60.51331
1602   0.05910   0.01321   0.00821   1.00000   0.05910   0.01321   0.00821   1.00000   60.49500
1603   0.05905   0.01233   0.00876   1.00000   0.05905   0.01233   0.00876   1.00000   60.41565
1604   0.05904   0.01242   0.01007   1.00000   0.05904   0.01242   0.01007   1.00000   60.51331
1605   0.05913   0.01205   0.00934   1.00000   0.05913   0.01205   0.00934   1.00000   60.52856
1606   0.05913   0.01047   0.01013   1.00000   0.05913   0.01047   0.01013   1.00000   60.43396
1607   0.05905   0.01279   0.00916   1.00000   0.05905   0.01279   0.00916   1.00000   60.54077
1608   0.05905   0.01288   0.00980   1.00000   0.05905   0.01288   0.00980   1.00000   60.42786
1609   0.05909   0.01276   0.00977   1.00000   0.05909   0.01276   0.00977   1.00000   60.48889
1610   0.05905   0.01041   0.00952   1.00000   0.05905   0.01041   0.00952   1.00000   60.34851
1611   0.05900   0.01227   0.00879   1.00000   0.05900   0.01227   0.00879   1.00000   60.50415
1612   0.05904   0.01151   0.00998   1.00000   0.05904   0.01151   0.00998   1.00000   60.48279
1613   0.05913   0.01233   0.00873   1.00000   0.05913   0.01233   0.00873   1.00000   60.37292
1614   0.05910   0.01389   0.00974   1.00000   0.05910   0.01389   0.00974   1.00000   60.51025
1615   0.05905   0.01224   0.00909   1.00000   0.05905   0.01224   0.00909   1.00000   60.47363
1616   0.05906   0.01267   0.01041   1.00000   0.05906   0.01267   0.01041   1.00000   60.53162
1617   0.05915   0.01361   0.00903   1.00000   0.05915   0.01361   0.00903   1.00000   60.46143
1618   0.05910   0.01209   0.01065   1.00000   0.05910   0.01209   0.01065   1.00000   60.44922
1619   0.05907   0.01196   0.01050   1.00000   0.05907   0.01196   0.01050   1.00000   60.44617
1620   0.05907   0.01111   0.00879   1.00000   0.05907   0.01111   0.00879   1.00000   60.44617
1621   0.05905   0.01294   0.00885   1.00000   0.05905   0.01294   0.00885   1.00000   60.45837
1622   0.05904   0.01212   0.00861   1.00000   0.05904   0.01212   0.00861   1.00000   60.46753
1623   0.05900   0.01196   0.00940   1.00000   0.05900   0.01196   0.00940   1.00000   60.44312
1624   0.05908   0.01389   0.00943   1.00000   0.05908   0.01389   0.00943   1.00000   60.54382
1625   0.05908   0.01419   0.00897   1.00000   0.05908   0.01419   0.00897   1.00000   60.46753
1626   0.05906   0.01233   0.00891   1.00000   0.05906   0.01233   0.00891   1.00000   60.53162
1627   0.05910   0.01395   0.01056   1.00000   0.05910   0.01395   0.01056   1.00000   60.52551
1628   0.05912   0.01267   0.00861   1.00000   0.05912   0.01267   0.00861   1.00000   60.49194
1629   0.05911   0.01205   0.00986   1.00000   0.05911   0.01205   0.00986   1.00000   60.37598
1630   0.05909   0.01190   0.00903   1.00000   0.05909   0.01190   0.00903   1.00000   60.44312
1631   0.05911   0.01389   0.00909   1.00000   0.05911   0.01389   0.00909   1.00000   60.54688
1632   0.05904   0.01480   0.01038   1.00000   0.05904   0.01480   0.01038   1.00000   60.45227
1633   0.05881   0.01276   0.01022   1.00000   0.05881   0.01276   0.01022   1.00000   60.45227
1634   0.05901   0.01190   0.00793   1.00000   0.05901   0.01190   0.00793   1.00000   60.46448
1635   0.05913   0.01416   0.00943   1.00000   0.05913   0.01416   0.00943   1.00000   60.54382
1636   0.05910   0.01251   0.01184   1.00000   0.05910   0.01251   0.01184   1.00000   60.41565
1637   0.05900   0.01318   0.00842   1.00000   0.05900   0.01318   0.00842   1.00000   60.47363
1638   0.05912   0.01367   0.00986   1.00000   0.05912   0.01367   0.00986   1.00000   60.52246
1639   0.05917   0.01291   0.00845   1.00000   0.05917   0.01291   0.00845   1.00000   60.40344
1640   0.05913   0.01447   0.00916   1.00000   0.05913   0.01447   0.00916   1.00000   60.58960
1641   0.05907   0.01315   0.00934   1.00000   0.05907   0.01315   0.00934   1.00000   60.59875
1642   0.05915   0.01001   0.00989   1.00000   0.05915   0.01001   0.00989   1.00000   60.41565
1643   0.05913   0.01273   0.00974   1.00000   0.05913   0.01273   0.00974   1.00000   60.49805
1644   0.05906   0.01331   0.00824   1.00000   0.05906   0.01331   0.00824   1.00000   60.45532
1645   0.05899   0.01343   0.00876   1.00000   0.05899   0.01343   0.00876   1.00000   60.49805
1646   0.05909   0.01160   0.01187   1.00000   0.05909   0.01160   0.01187   1.00000   60.47363
1647   0.05906   0.01386   0.00894   1.00000   0.05906   0.01386   0.00894   1.00000   60.48584
1648   0.05905   0.01178   0.00888   1.00000   0.05905   0.01178   0.00888   1.00000   60.45837
1649   0.05903   0.01172   0.00855   1.00000   0.05903   0.01172   0.00855   1.00000   60.53772
1650   0.05911   0.01227   0.01209   1.00000   0.05911   0.01227   0.01209   1.00000   60.57739
1651   0.05915   0.01358   0.00647   1.00000   0.05915   0.01358   0.00647   1.00000   60.42175
1652   0.05915   0.01154   0.00943   1.00000   0.05915   0.01154   0.00943   1.00000   60.52551
1653   0.05911   0.01303   0.01123   1.00000   0.05911   0.01303   0.01123   1.00000   60.56213
1654   0.05909   0.01114   0.01086   1.00000   0.05909   0.01114   0.01086   1.00000   60.39429
1655   0.05909   0.01337   0.00790   1.00000   0.05909   0.01337   0.00790   1.00000   60.40955
1656   0.05907   0.01166   0.00772   1.00000   0.05907   0.01166   0.00772   1.00000   60.49194
1657   0.05906   0.01099   0.00940   1.00000   0.05906   0.01099   0.00940   1.00000   60.50110
1658   0.05912   0.01175   0.01028   1.00000   0.05912   0.01175   0.01028   1.00000   60.46143
1659   0.05902   0.01205   0.00909   1.00000   0.05902   0.01205   0.00909   1.00000   60.39124
1660   0.05899   0.01105   0.00879   1.00000   0.05899   0.01105   0.00879   1.00000   60.55908
1661   0.05912   0.01154   0.01105   1.00000   0.05912   0.01154   0.01105   1.00000   60.44312
1662   0.05910   0.01068   0.01144   1.00000   0.05910   0.01068   0.01144   1.00000   60.46448
1663   0.05905   0.01209   0.00858   1.00000   0.05905   0.01209   0.00858   1.00000   60.50415
1664   0.05905   0.01331   0.01147   1.00000   0.05905   0.01331   0.01147   1.00000   60.50415
1665   0.05911   0.01001   0.01279   1.00000   0.05911   0.01001   0.01279   1.00000   60.50110
1666   0.05914   0.01279   0.00977   1.00000   0.05914   0.01279   0.00977   1.00000   60.44006
1667   0.05906   0.01099   0.01004   1.00000   0.05906   0.01099   0.01004   1.00000   60.47058
1668   0.05917   0.01291   0.01038   1.00000   0.05917   0.01291   0.01038   1.00000   60.52856
1669   0.05908   0.01138   0.00879   1.00000   0.05908   0.01138   0.00879   1.00000   60.48279
1670   0.05889   0.01325   0.00766   1.00000   0.05889   0.01325   0.00766   1.00000   60.43091
1671   0.05896   0.01132   0.00967   1.00000   0.05896   0.01132   0.00967   1.00000   60.44922
1672   0.05916   0.01273   0.00909   1.00000   0.05916   0.01273   0.00909   1.00000   60.49194
1673   0.05906   0.01059   0.00952   1.00000   0.05906   0.01059   0.00952   1.00000   60.42175
1674   0.05898   0.01236   0.00961   1.00000   0.05898   0.01236   0.00961   1.00000   60.52246
1675   0.05903   0.01199   0.00778   1.00000   0.05903   0.01199   0.00778   1.00000   60.50720
1676   0.05911   0.01108   0.01099   1.00000   0.05911   0.01108   0.01099   1.00000   60.54688
1677   0.05906   0.01340   0.00986   1.00000   0.05906   0.01340   0.00986   1.00000   60.51636
1678   0.05905   0.01093   0.00958   1.00000   0.05905   0.01093   0.00958   1.00000   60.42786
1679   0.05906   0.01126   0.01007   1.00000   0.05906   0.01126   0.01007   1.00000   60.50110
1680   0.05906   0.01151   0.00964   1.00000   0.05906   0.01151   0.00964   1.00000   60.47058
1681   0.05897   0.00998   0.00983   1.00000   0.05897   0.00998   0.00983   1.00000   60.44006
1682   0.05899   0.01282   0.00806   1.00000   0.05899   0.01282   0.00806   1.00000   60.51331
1683   0.05905   0.00870   0.00867   1.00000   0.05905   0.00870   0.00867   1.00000   60.44312
1684   0.05909   0.01349   0.01114   1.00000   0.05909   0.01349   0.01114   1.00000   60.58044
1685   0.05903   0.01209   0.00827   1.00000   0.05903   0.01209   0.00827   1.00000   60.52246
1686   0.05904   0.01157   0.00757   1.00000   0.05904   0.01157   0.00757   1.00000   60.46753
1687   0.05913   0.01035   0.00977   1.00000   0.05913   0.01035   0.00977   1.00000   60.54382
1688   0.05912   0.01306   0.00931   1.00000   0.05912   0.01306   0.00931   1.00000   60.38208
1689   0.05902   0.01205   0.01004   1.00000   0.05902   0.01205   0.01004   1.00000   60.56213
1690   0.05905   0.00995   0.00882   1.00000   0.05905   0.00995   0.00882   1.00000   60.47974
1691   0.05911   0.01102   0.00876   1.00000   0.05911   0.01102   0.00876   1.00000   60.50110
1692   0.05900   0.00964   0.01010   1.00000   0.05900   0.00964   0.01010   1.00000   60.41260
1693   0.05895   0.01019   0.00937   1.00000   0.05895   0.01019   0.00937   1.00000   60.45227
1694   0.05902   0.01224   0.01022   1.00000   0.05902   0.01224   0.01022   1.00000   60.54688
1695   0.05910   0.01190   0.00870   1.00000   0.05910   0.01190   0.00870   1.00000   60.46448
1696   0.05906   0.01154   0.00818   1.00000   0.05906   0.01154   0.00818   1.00000   60.42175
1697   0.05901   0.01114   0.00705   1.00000   0.05901   0.01114   0.00705   1.00000   60.46448
1698   0.05906   0.01230   0.01004   1.00000   0.05906   0.01230   0.01004   1.00000   60.59265
1699   0.05909   0.01132   0.00909   1.00000   0.05909   0.01132   0.00909   1.00000   60.51941
1700   0.05907   0.01074   0.01001   1.00000   0.05907   0.01074   0.01001   1.00000   60.41260
1701   0.05902   0.01157   0.01077   1.00000   0.05902   0.01157   0.01077   1.00000   60.51636
1702   0.05911   0.01328   0.00900   1.00000   0.05911   0.01328   0.00900   1.00000   60.51636
1703   0.05906   0.01297   0.00821   1.00000   0.05906   0.01297   0.00821   1.00000   60.45532
1704   0.05897   0.01236   0.00848   1.00000   0.05897   0.01236   0.00848   1.00000   60.47058
1705   0.05901   0.01248   0.00977   1.00000   0.05901   0.01248   0.00977   1.00000   60.52551
1706   0.05902   0.01334   0.00940   1.00000   0.05902   0.01334   0.00940   1.00000   60.51636
1707   0.05903   0.01010   0.00998   1.00000   0.05903   0.01010   0.00998   1.00000   60.43091
1708   0.05902   0.01392   0.00784   1.00000   0.05902   0.01392   0.00784   1.00000   60.44006
1709   0.05905   0.01147   0.00931   1.00000   0.05905   0.01147   0.00931   1.00000   60.52551
1710   0.05907   0.00992   0.00879   1.00000   0.05907   0.00992   0.00879   1.00000   60.47668
1711   0.05908   0.01135   0.00656   1.00000   0.05908   0.01135   0.00656   1.00000   60.40344
1712   0.05907   0.01193   0.00790   1.00000   0.05907   0.01193   0.00790   1.00000   60.39734
1713   0.05913   0.01129   0.00861   1.00000   0.05913   0.01129   0.00861   1.00000   60.40344
1714   0.05909   0.01178   0.00851   1.00000   0.05909   0.01178   0.00851   1.00000   60.45837
1715   0.05905   0.01123   0.00803   1.00000   0.05905   0.01123   0.00803   1.00000   60.30273
1716   0.05895   0.01111   0.00916   1.00000   0.05895   0.01111   0.00916   1.00000   60.53467
1717   0.05906   0.01059   0.00824   1.00000   0.05906   0.01059   0.00824   1.00000   60.51636
1718   0.05903   0.01062   0.00922   1.00000   0.05903   0.01062   0.00922   1.00000   60.46143
1719   0.05895   0.00891   0.00888   1.00000   0.05895   0.00891   0.00888   1.00000   60.45837
1720   0.05904   0.01090   0.01038   1.00000   0.05904   0.01090   0.01038   1.00000   60.54382
1721   0.05909   0.00977   0.00894   1.00000   0.05909   0.00977   0.00894   1.00000   60.44312
1722   0.05903   0.01355   0.00827   1.00000   0.05903   0.01355   0.00827   1.00000   60.53772
1723   0.05898   0.00891   0.00937   1.00000   0.05898   0.00891   0.00937   1.00000   60.52246
1724   0.05911   0.01172   0.00787   1.00000   0.05911   0.01172   0.00787   1.00000   60.51636
1725   0.05913   0.00989   0.00909   1.00000   0.05913   0.00989   0.00909   1.00000   60.43396
1726   0.05904   0.01160   0.00821   1.00000   0.05904   0.01160   0.00821   1.00000   60.38818
1727   0.05895   0.00952   0.01154   1.00000   0.05895   0.00952   0.01154   1.00000   60.56824
1728   0.05902   0.00928   0.01004   1.00000   0.05902   0.00928   0.01004   1.00000   60.42480
1729   0.05906   0.01044   0.00870   1.00000   0.05906   0.01044   0.00870   1.00000   60.48584
1730   0.05896   0.00949   0.00784   1.00000   0.05896   0.00949   0.00784   1.00000   60.44922
1731   0.05898   0.00864   0.00867   1.00000   0.05898   0.00864   0.00867   1.00000   60.52246
1732   0.05910   0.01093   0.00937   1.00000   0.05910   0.01093   0.00937   1.00000   60.52551
1733   0.05913   0.00952   0.00824   1.00000   0.05913   0.00952   0.00824   1.00000   60.38818
1734   0.05905   0.01166   0.00885   1.00000   0.05905   0.01166   0.00885   1.00000   60.56519
1735   0.05910   0.01196   0.00742   1.00000   0.05910   0.01196   0.00742   1.00000   60.49500
1736   0.05913   0.01032   0.00769   1.00000   0.05913   0.01032   0.00769   1.00000   60.32715
1737   0.05911   0.01282   0.00864   1.00000   0.05911   0.01282   0.00864   1.00000   60.37598
1738   0.05904   0.01154   0.00723   1.00000   0.05904   0.01154   0.00723   1.00000   60.51331
1739   0.05901   0.00903   0.00839   1.00000   0.05901   0.00903   0.00839   1.00000   60.47974
1740   0.05901   0.01193   0.00714   1.00000   0.05901   0.01193   0.00714   1.00000   60.36987
1741   0.05902   0.01184   0.00745   1.00000   0.05902   0.01184   0.00745   1.00000   60.39124
1742   0.05895   0.00876   0.00952   1.00000   0.05895   0.00876   0.00952   1.00000   60.52856
1743   0.05904   0.01141   0.01059   1.00000   0.05904   0.01141   0.01059   1.00000   60.49805
1744   0.05905   0.01001   0.00705   1.00000   0.05905   0.01001   0.00705   1.00000   60.40955
1745   0.05905   0.01129   0.00864   1.00000   0.05905   0.01129   0.00864   1.00000   60.47363
1746   0.05905   0.01053   0.00986   1.00000   0.05905   0.01053   0.00986   1.00000   60.45837
1747   0.05911   0.01337   0.00839   1.00000   0.05911   0.01337   0.00839   1.00000   60.48584
1748   0.05905   0.00940   0.00778   1.00000   0.05905   0.00940   0.00778   1.00000   60.44922
1749   0.05905   0.01010   0.00900   1.00000   0.05905   0.01010   0.00900   1.00000   60.47363
1750   0.05904   0.00949   0.00861   1.00000   0.05904   0.00949   0.00861   1.00000   60.48279
1751   0.05899   0.01035   0.00873   1.00000   0.05899   0.01035   0.00873   1.00000   60.34241
1752   0.05873   0.01019   0.01141   1.00000   0.05873   0.01019   0.01141   1.00000   60.48279
1753   0.05894   0.01050   0.00974   1.00000   0.05894   0.01050   0.00974   1.00000   60.46143
1754   0.05908   0.01318   0.00964   1.00000   0.05908   0.01318   0.00964   1.00000   60.57434
1755   0.05906   0.00916   0.00855   1.00000   0.05906   0.00916   0.00855   1.00000   60.45532
1756   0.05894   0.01068   0.00992   1.00000   0.05894   0.01068   0.00992   1.00000   60.43091
1757   0.05897   0.01071   0.01215   1.00000   0.05897   0.01071   0.01215   1.00000   60.50110
1758   0.05908   0.00919   0.01096   1.00000   0.05908   0.00919   0.01096   1.00000   60.37292
1759   0.05908   0.01190   0.01047   1.00000   0.05908   0.01190   0.01047   1.00000   60.48279
1760   0.05900   0.01013   0.01032   1.00000   0.05900   0.01013   0.01032   1.00000   60.39429
1761   0.05905   0.01007   0.01074   1.00000   0.05905   0.01007   0.01074   1.00000   60.50415
1762   0.05906   0.01126   0.00833   1.00000   0.05906   0.01126   0.00833   1.00000   60.48584
1763   0.05899   0.01050   0.00940   1.00000   0.05899   0.01050   0.00940   1.00000   60.45227
1764   0.05891   0.01340   0.01041   1.00000   0.05891   0.01340   0.01041   1.00000   60.72388
1765   0.05898   0.00708   0.00916   1.00000   0.05898   0.00708   0.00916   1.00000   60.44617
1766   0.05903   0.01013   0.00964   1.00000   0.05903   0.01013   0.00964   1.00000   60.41565
1767   0.05897   0.00983   0.01044   1.00000   0.05897   0.00983   0.01044   1.00000   60.51636
1768   0.05908   0.01215   0.00937   1.00000   0.05908   0.01215   0.00937   1.00000   60.49805
1769   0.05916   0.01038   0.00897   1.00000   0.05916   0.01038   0.00897   1.00000   60.42786
1770   0.05912   0.01306   0.00836   1.00000   0.05912   0.01306   0.00836   1.00000   60.44312
1771   0.05905   0.01151   0.00821   1.00000   0.05905   0.01151   0.00821   1.00000   60.45837
1772   0.05909   0.01019   0.00769   1.00000   0.05909   0.01019   0.00769   1.00000   60.45837
1773   0.05918   0.01123   0.01132   1.00000   0.05918   0.01123   0.01132   1.00000   60.34851
1774   0.05911   0.01035   0.01028   1.00000   0.05911   0.01035   0.01028   1.00000   60.40649
1775   0.05898   0.01080   0.00943   1.00000   0.05898   0.01080   0.00943   1.00000   60.46143
1776   0.05902   0.01114   0.01010   1.00000   0.05902   0.01114   0.01010   1.00000   60.37598
1777   0.05908   0.01013   0.00867   1.00000   0.05908   0.01013   0.00867   1.00000   60.43396
1778   0.05906   0.01117   0.00992   1.00000   0.05906   0.01117   0.00992   1.00000   60.47058
1779   0.05900   0.01044   0.00970   1.00000   0.05900   0.01044   0.00970   1.00000   60.45837
1780   0.05903   0.00952   0.01181   1.00000   0.05903   0.00952   0.01181   1.00000   60.49194
1781   0.05912   0.01267   0.00861   1.00000   0.05912   0.01267   0.00861   1.00000   60.49194
1782   0.05908   0.01190   0.00855   1.00000   0.05908   0.01190   0.00855   1.00000   60.35767
1783   0.05905   0.01080   0.00955   1.00000   0.05905   0.01080   0.00955   1.00000   60.51941
1784   0.05907   0.00992   0.01022   1.00000   0.05907   0.00992   0.01022   1.00000   60.50720
1785   0.05908   0.01044   0.01013   1.00000   0.05908   0.01044   0.01013   1.00000   60.48279
1786   0.05905   0.01166   0.01047   1.00000   0.05905   0.01166   0.01047   1.00000   60.44922
1787   0.05895   0.00909   0.00909   1.00000   0.05895   0.00909   0.00909   1.00000   60.43701
1788   0.05899   0.00940   0.00925   1.00000   0.05899   0.00940   0.00925   1.00000   60.52856
1789   0.05901   0.00983   0.01138   1.00000   0.05901   0.00983   0.01138   1.00000   60.41870
1790   0.05901   0.01151   0.00742   1.00000   0.05901   0.01151   0.00742   1.00000   60.43396
1791   0.05900   0.01053   0.01099   1.00000   0.05900   0.01053   0.01099   1.00000   60.56519
1792   0.05908   0.01230   0.00812   1.00000   0.05908   0.01230   0.00812   1.00000   60.45227
1793   0.05904   0.00760   0.00870   1.00000   0.05904   0.00760   0.00870   1.00000   60.38818
1794   0.05905   0.01328   0.00726   1.00000   0.05905   0.01328   0.00726   1.00000   60.55603
1795   0.05910   0.00970   0.00989   1.00000   0.05910   0.00970   0.00989   1.00000   60.41565
1796   0.05910   0.01028   0.00882   1.00000   0.05910   0.01028   0.00882   1.00000   60.43091
1797   0.05903   0.01062   0.00745   1.00000   0.05903   0.01062   0.00745   1.00000   60.44617
1798   0.05903   0.01068   0.00858   1.00000   0.05903   0.01068   0.00858   1.00000   60.44617
1799   0.05904   0.01065   0.00842   1.00000   0.05904   0.01065   0.00842   1.00000   60.34241
1800   0.05903   0.01083   0.00845   1.00000   0.05903   0.01083   0.00845   1.00000   60.47668
1801   0.05896   0.01038   0.01147   1.00000   0.05896   0.01038   0.01147   1.00000   60.54077
1802   0.05903   0.00970   0.00815   1.00000   0.05903   0.00970   0.00815   1.00000   60.47668
1803   0.05906   0.01074   0.01016   1.00000   0.05906   0.01074   0.01016   1.00000   60.53162
1804   0.05905   0.00934   0.00696   1.00000   0.05905   0.00934   0.00696   1.00000   60.44312
1805   0.05904   0.01056   0.00842   1.00000   0.05904   0.01056   0.00842   1.00000   60.42175
1806   0.05909   0.00894   0.00931   1.00000   0.05909   0.00894   0.00931   1.00000   60.40955
1807   0.05909   0.01151   0.00784   1.00000   0.05909   0.01151   0.00784   1.00000   60.45837
1808   0.05903   0.00809   0.00797   1.00000   0.05903   0.00809   0.00797   1.00000   60.46143
1809   0.05901   0.01004   0.00821   1.00000   0.05901   0.01004   0.00821   1.00000   60.47974
1810   0.05905   0.00943   0.00858   1.00000   0.05905   0.00943   0.00858   1.00000   60.51941
1811   0.05900   0.00937   0.00909   1.00000   0.05900   0.00937   0.00909   1.00000   60.42786
1812   0.05902   0.00925   0.00989   1.00000   0.05902   0.00925   0.00989   1.00000   60.33020
1813   0.05895   0.00735   0.01065   1.00000   0.05895   0.00735   0.01065   1.00000   60.52856
1814   0.05908   0.01166   0.00916   1.00000   0.05908   0.01166   0.00916   1.00000   60.49805
1815   0.05908   0.01212   0.00729   1.00000   0.05908   0.01212   0.00729   1.00000   60.28137
1816   0.05902   0.01108   0.00943   1.00000   0.05902   0.01108   0.00943   1.00000   60.47058
1817   0.05904   0.01309   0.00806   1.00000   0.05904   0.01309   0.00806   1.00000   60.51331
1818   0.05913   0.01086   0.01016   1.00000   0.05913   0.01086   0.01016   1.00000   60.38818
1819   0.05908   0.01071   0.00903   1.00000   0.05908   0.01071   0.00903   1.00000   60.48279
1820   0.05903   0.00986   0.00623   1.00000   0.05903   0.00986   0.00623   1.00000   60.49194
1821   0.05905   0.01187   0.01016   1.00000   0.05905   0.01187   0.01016   1.00000   60.56519
1822   0.05910   0.01144   0.00913   1.00000   0.05910   0.01144   0.00913   1.00000   60.40039
1823   0.05898   0.01065   0.00845   1.00000   0.05898   0.01065   0.00845   1.00000   60.40039
1824   0.05897   0.01044   0.00793   1.00000   0.05897   0.01044   0.00793   1.00000   60.48584
1825   0.05901   0.00916   0.01065   1.00000   0.05901   0.00916   0.01065   1.00000   60.49500
1826   0.05906   0.01056   0.00855   1.00000   0.05906   0.01056   0.00855   1.00000   60.53162
1827   0.05904   0.01083   0.00876   1.00000   0.05904   0.01083   0.00876   1.00000   60.45227
1828   0.05904   0.01123   0.00720   1.00000   0.05904   0.01123   0.00720   1.00000   60.49805
1829   0.05910   0.01160   0.00897   1.00000   0.05910   0.01160   0.00897   1.00000   60.43091
1830   0.05913   0.00909   0.00900   1.00000   0.05913   0.00909   0.00900   1.00000   60.29663
1831   0.05906   0.01129   0.00943   1.00000   0.05906   0.01129   0.00943   1.00000   60.51636
1832   0.05899   0.01053   0.00842   1.00000   0.05899   0.01053   0.00842   1.00000   60.46753
1833   0.05894   0.01083   0.01010   1.00000   0.05894   0.01083   0.01010   1.00000   60.43091
1834   0.05901   0.01074   0.00827   1.00000   0.05901   0.01074   0.00827   1.00000   60.44922
1835   0.05901   0.01007   0.00851   1.00000   0.05901   0.01007   0.00851   1.00000   60.41870
1836   0.05905   0.01151   0.01010   1.00000   0.05905   0.01151   0.01010   1.00000   60.58044
1837   0.05903   0.01144   0.00916   1.00000   0.05903   0.01144   0.00916   1.00000   60.46143
1838   0.05902   0.00909   0.00839   1.00000   0.05902   0.00909   0.00839   1.00000   60.42480
1839   0.05905   0.00955   0.01004   1.00000   0.05905   0.00955   0.01004   1.00000   60.44312
1840   0.05913   0.01032   0.01074   1.00000   0.05913   0.01032   0.01074   1.00000   60.49805
1841   0.05912   0.00937   0.01096   1.00000   0.05912   0.00937   0.01096   1.00000   60.46143
1842   0.05906   0.00986   0.01007   1.00000   0.05906   0.00986   0.01007   1.00000   60.44006
1843   0.05906   0.01056   0.00952   1.00000   0.05906   0.01056   0.00952   1.00000   60.45532
1844   0.05916   0.00998   0.01035   1.00000   0.05916   0.00998   0.01035   1.00000   60.50720
1845   0.05909   0.01044   0.01013   1.00000   0.05909   0.01044   0.01013   1.00000   60.47363
1846   0.05898   0.00967   0.00977   1.00000   0.05898   0.00967   0.00977   1.00000   60.43091
1847   0.05895   0.01114   0.00851   1.00000   0.05895   0.01114   0.00851   1.00000   60.54993
1848   0.05908   0.01038   0.01013   1.00000   0.05908   0.01038   0.01013   1.00000   60.54382
1849   0.05903   0.01059   0.00778   1.00000   0.05903   0.01059   0.00778   1.00000   60.46143
1850   0.05899   0.01090   0.00735   1.00000   0.05899   0.01090   0.00735   1.00000   60.40649
1851   0.05908   0.01282   0.01105   1.00000   0.05908   0.01282   0.01105   1.00000   60.62012
1852   0.05924   0.00995   0.00809   1.00000   0.05924   0.00995   0.00809   1.00000   60.36987
1853   0.05912   0.01016   0.00864   1.00000   0.05912   0.01016   0.00864   1.00000   60.39734
1854   0.05893   0.00931   0.00894   1.00000   0.05893   0.00931   0.00894   1.00000   60.42480
1855   0.05909   0.01111   0.00955   1.00000   0.05909   0.01111   0.00955   1.00000   60.51941
1856   0.05919   0.01178   0.00928   1.00000   0.05919   0.01178   0.00928   1.00000   60.44617
1857   0.05912   0.00983   0.00861   1.00000   0.05912   0.00983   0.00861   1.00000   60.39734
1858   0.05898   0.00986   0.00818   1.00000   0.05898   0.00986   0.00818   1.00000   60.38208
1859   0.05903   0.00818   0.01022   1.00000   0.05903   0.00818   0.01022   1.00000   60.49194
1860   0.05910   0.01141   0.00735   1.00000   0.05910   0.01141   0.00735   1.00000   60.41565
1861   0.05903   0.01108   0.00800   1.00000   0.05903   0.01108   0.00800   1.00000   60.44617
1862   0.05898   0.00928   0.00797   1.00000   0.05898   0.00928   0.00797   1.00000   60.47668
1863   0.05909   0.01053   0.00870   1.00000   0.05909   0.01053   0.00870   1.00000   60.39429
1864   0.05907   0.01016   0.00867   1.00000   0.05907   0.01016   0.00867   1.00000   60.42786
1865   0.05905   0.01080   0.00699   1.00000   0.05905   0.01080   0.00699   1.00000   60.45837
1866   0.05904   0.00970   0.00928   1.00000   0.05904   0.00970   0.00928   1.00000   60.52856
1867   0.05914   0.00998   0.01102   1.00000   0.05914   0.00998   0.01102   1.00000   60.48889
1868   0.05921   0.01147   0.00861   1.00000   0.05921   0.01147   0.00861   1.00000   60.44312
1869   0.05909   0.01120   0.00702   1.00000   0.05909   0.01120   0.00702   1.00000   60.36377
1870   0.05882   0.00970   0.00839   1.00000   0.05882   0.00970   0.00839   1.00000   60.47974
1871   0.05900   0.01099   0.00928   1.00000   0.05900   0.01099   0.00928   1.00000   60.45837
1872   0.05905   0.00906   0.00903   1.00000   0.05905   0.00906   0.00903   1.00000   60.36987
1873   0.05895   0.01154   0.01114   1.00000   0.05895   0.01154   0.01114   1.00000   60.56824
1874   0.05897   0.00970   0.00946   1.00000   0.05897   0.00970   0.00946   1.00000   60.44006
1875   0.05905   0.00873   0.00900   1.00000   0.05905   0.00873   0.00900   1.00000   60.39429
1876   0.05905   0.00937   0.00763   1.00000   0.05905   0.00937   0.00763   1.00000   60.36987
1877   0.05904   0.00949   0.00827   1.00000   0.05904   0.00949   0.00827   1.00000   60.48279
1878   0.05907   0.00958   0.00797   1.00000   0.05907   0.00958   0.00797   1.00000   60.41260
1879   0.05909   0.00909   0.00870   1.00000   0.05909   0.00909   0.00870   1.00000   60.34851
1880   0.05905   0.01010   0.00931   1.00000   0.05905   0.01010   0.00931   1.00000   60.45837
1881   0.05903   0.01028   0.00919   1.00000   0.05903   0.01028   0.00919   1.00000   60.46143
1882   0.05899   0.01050   0.00842   1.00000   0.05899   0.01050   0.00842   1.00000   60.49805
1883   0.05901   0.01099   0.00830   1.00000   0.05901   0.01099   0.00830   1.00000   60.51025
1884   0.05895   0.00842   0.01010   1.00000   0.05895   0.00842   0.01010   1.00000   60.50415
1885   0.05902   0.01102   0.01184   1.00000   0.05902   0.01102   0.01184   1.00000   60.48584
1886   0.05905   0.01138   0.00769   1.00000   0.05905   0.01138   0.00769   1.00000   60.46448
1887   0.05907   0.01196   0.00793   1.00000   0.05907   0.01196   0.00793   1.00000   60.35156
1888   0.05901   0.01068   0.00861   1.00000   0.05901   0.01068   0.00861   1.00000   60.46448
1889   0.05911   0.00842   0.01004   1.00000   0.05911   0.00842   0.01004   1.00000   60.37598
1890   0.05909   0.01129   0.00864   1.00000   0.05909   0.01129   0.00864   1.00000   60.42480
1891   0.05905   0.01105   0.00589   1.00000   0.05905   0.01105   0.00589   1.00000   60.44922
1892   0.05904   0.01019   0.00806   1.00000   0.05904   0.01019   0.00806   1.00000   60.46753
1893   0.05905   0.01010   0.00916   1.00000   0.05905   0.01010   0.00916   1.00000   60.57129
1894   0.05896   0.00992   0.00870   1.00000   0.05896   0.00992   0.00870   1.00000   60.46448
1895   0.05897   0.01035   0.01147   1.00000   0.05897   0.01035   0.01147   1.00000   60.54688
1896   0.05904   0.01019   0.00693   1.00000   0.05904   0.01019   0.00693   1.00000   60.43701
1897   0.05906   0.00906   0.01126   1.00000   0.05906   0.00906   0.01126   1.00000   60.48584
1898   0.05903   0.01120   0.00848   1.00000   0.05903   0.01120   0.00848   1.00000   60.43091
1899   0.05902   0.01138   0.00739   1.00000   0.05902   0.01138   0.00739   1.00000   60.50110
1900   0.05907   0.00955   0.01117   1.00000   0.05907   0.00955   0.01117   1.00000   60.47668
1901   0.05911   0.01093   0.00970   1.00000   0.05911   0.01093   0.00970   1.00000   60.48584
1902   0.05902   0.00998   0.00851   1.00000   0.05902   0.00998   0.00851   1.00000   60.48584
1903   0.05902   0.00906   0.01016   1.00000   0.05902   0.00906   0.01016   1.00000   60.45532
1904   0.05907   0.00925   0.01047   1.00000   0.05907   0.00925   0.01047   1.00000   60.50720
1905   0.05906   0.00995   0.01056   1.00000   0.05906   0.00995   0.01056   1.00000   60.47058
1906   0.05894   0.00955   0.00754   1.00000   0.05894   0.00955   0.00754   1.00000   60.46143
1907   0.05896   0.01090   0.00848   1.00000   0.05896   0.01090   0.00848   1.00000   60.47974
1908   0.05905   0.01044   0.01080   1.00000   0.05905   0.01044   0.01080   1.00000   60.47974
1909   0.05905   0.01077   0.01050   1.00000   0.05905   0.01077   0.01050   1.00000   60.47974
1910   0.05904   0.01218   0.00540   1.00000   0.05904   0.01218   0.00540   1.00000   60.38818
1911   0.05903   0.01001   0.00851   1.00000   0.05903   0.01001   0.00851   1.00000   60.46143
1912   0.05908   0.01071   0.00970   1.00000   0.05908   0.01071   0.00970   1.00000   60.43396
1913   0.05908   0.01032   0.00708   1.00000   0.05908   0.01032   0.00708   1.00000   60.41870
1914   0.05899   0.00882   0.00806   1.00000   0.05899   0.00882   0.00806   1.00000   60.42175
1915   0.05905   0.00986   0.00977   1.00000   0.05905   0.00986   0.00977   1.00000   60.48889
1916   0.05910   0.00940   0.00986   1.00000   0.05910   0.00940   0.00986   1.00000   60.40039
1917   0.05901   0.00989   0.01010   1.00000   0.05901   0.00989   0.01010   1.00000   60.46448
1918   0.05896   0.01080   0.00717   1.00000   0.05896   0.01080   0.00717   1.00000   60.38818
1919   0.05900   0.00717   0.00931   1.00000   0.05900   0.00717   0.00931   1.00000   60.45837
1920   0.05902   0.00858   0.01028   1.00000   0.05902   0.00858   0.01028   1.00000   60.44006
1921   0.05904   0.01016   0.00964   1.00000   0.05904   0.01016   0.00964   1.00000   60.40344
1922   0.05901   0.01035   0.00647   1.00000   0.05901   0.01035   0.00647   1.00000   60.49500
1923   0.05905   0.00763   0.00772   1.00000   0.05905   0.00763   0.00772   1.00000   60.42786
1924   0.05906   0.00986   0.01056   1.00000   0.05906   0.00986   0.01056   1.00000   60.53162
1925   0.05905   0.00913   0.00983   1.00000   0.05905   0.00913   0.00983   1.00000   60.40955
1926   0.05907   0.00864   0.01074   1.00000   0.05907   0.00864   0.01074   1.00000   60.46143
1927   0.05907   0.00784   0.00919   1.00000   0.05907   0.00784   0.00919   1.00000   60.53772
1928   0.05903   0.01010   0.00674   1.00000   0.05903   0.01010   0.00674   1.00000   60.39734
1929   0.05898   0.00980   0.00851   1.00000   0.05898   0.00980   0.00851   1.00000   60.41565
1930   0.05903   0.01230   0.00812   1.00000   0.05903   0.01230   0.00812   1.00000   60.50720
1931   0.05903   0.00952   0.00992   1.00000   0.05903   0.00952   0.00992   1.00000   60.36682
1932   0.05900   0.00980   0.00931   1.00000   0.05900   0.00980   0.00931   1.00000   60.47363
1933   0.05907   0.01028   0.00964   1.00000   0.05907   0.01028   0.00964   1.00000   60.52246
1934   0.05914   0.00986   0.00842   1.00000   0.05914   0.00986   0.00842   1.00000   60.48889
1935   0.05903   0.00931   0.00955   1.00000   0.05903   0.00931   0.00955   1.00000   60.55298
1936   0.05900   0.00949   0.00958   1.00000   0.05900   0.00949   0.00958   1.00000   60.44312
1937   0.05904   0.00848   0.01135   1.00000   0.05904   0.00848   0.01135   1.00000   60.55908
1938   0.05915   0.01010   0.00864   1.00000   0.05915   0.01010   0.00864   1.00000   60.40649
1939   0.05906   0.01074   0.00873   1.00000   0.05906   0.01074   0.00873   1.00000   60.50110
1940   0.05898   0.01032   0.00809   1.00000   0.05898   0.01032   0.00809   1.00000   60.41565
1941   0.05900   0.00998   0.00803   1.00000   0.05900   0.00998   0.00803   1.00000   60.42786
1942   0.05906   0.01172   0.00885   1.00000   0.05906   0.01172   0.00885   1.00000   60.48584
1943   0.05900   0.01035   0.00711   1.00000   0.05900   0.01035   0.00711   1.00000   60.44312
1944   0.05895   0.00909   0.00909   1.00000   0.05895   0.00909   0.00909   1.00000   60.43701
1945   0.05905   0.01025   0.00851   1.00000   0.05905   0.01025   0.00851   1.00000   60.51025
1946   0.05909   0.01154   0.00754   1.00000   0.05909   0.01154   0.00754   1.00000   60.44312
1947   0.05903   0.00964   0.00909   1.00000   0.05903   0.00964   0.00909   1.00000   60.46143
1948   0.05902   0.00974   0.00879   1.00000   0.05902   0.00974   0.00879   1.00000   60.40955
1949   0.05911   0.01068   0.00790   1.00000   0.05911   0.01068   0.00790   1.00000   60.43701
1950   0.05914   0.01090   0.00922   1.00000   0.05914   0.01090   0.00922   1.00000   60.40955
1951   0.05895   0.00882   0.00888   1.00000   0.05895   0.00882   0.00888   1.00000   60.52856
1952   0.05877   0.01056   0.01016   1.00000   0.05877   0.01056   0.01016   1.00000   60.50720
1953   0.05896   0.00781   0.00891   1.00000   0.05896   0.00781   0.00891   1.00000   60.40344
1954   0.05914   0.01370   0.00986   1.00000   0.05914   0.01370   0.00986   1.00000   60.48889
1955   0.05896   0.00888   0.00986   1.00000   0.05896   0.00888   0.00986   1.00000   60.41870
1956   0.05895   0.01022   0.01004   1.00000   0.05895   0.01022   0.01004   1.00000   60.39124
1957   0.05903   0.01013   0.00934   1.00000   0.05903   0.01013   0.00934   1.00000   60.44617
1958   0.05907   0.01035   0.00821   1.00000   0.05907   0.01035   0.00821   1.00000   60.44617
1959   0.05903   0.00995   0.00916   1.00000   0.05903   0.00995   0.00916   1.00000   60.46143
1960   0.05904   0.00845   0.00977   1.00000   0.05904   0.00845   0.00977   1.00000   60.43701
1961   0.05906   0.00913   0.00839   1.00000   0.05906   0.00913   0.00839   1.00000   60.36072
1962   0.05905   0.01007   0.01074   1.00000   0.05905   0.01007   0.01074   1.00000   60.49500
1963   0.05902   0.00903   0.01050   1.00000   0.05902   0.00903   0.01050   1.00000   60.45532
1964   0.05905   0.01181   0.00967   1.00000   0.05905   0.01181   0.00967   1.00000   60.50415
1965   0.05895   0.00980   0.01028   1.00000   0.05895   0.00980   0.01028   1.00000   60.44312
1966   0.05897   0.00726   0.00949   1.00000   0.05897   0.00726   0.00949   1.00000   60.53162
1967   0.05900   0.00949   0.00943   1.00000   0.05900   0.00949   0.00943   1.00000   60.56519
1968   0.05913   0.00931   0.00726   1.00000   0.05913   0.00931   0.00726   1.00000   60.37292
1969   0.05910   0.01068   0.00824   1.00000   0.05910   0.01068   0.00824   1.00000   60.41565
1970   0.05904   0.01044   0.00937   1.00000   0.05904   0.01044   0.00937   1.00000   60.46753
1971   0.05910   0.00922   0.00934   1.00000   0.05910   0.00922   0.00934   1.00000   60.44922
1972   0.05915   0.00897   0.00943   1.00000   0.05915   0.00897   0.00943   1.00000   60.48584
1973   0.05911   0.00745   0.00897   1.00000   0.05911   0.00745   0.00897   1.00000   60.43701
1974   0.05909   0.01129   0.00766   1.00000   0.05909   0.01129   0.00766   1.00000   60.50415
1975   0.05915   0.00906   0.00739   1.00000   0.05915   0.00906   0.00739   1.00000   60.40649
1976   0.05906   0.00809   0.01147   1.00000   0.05906   0.00809   0.01147   1.00000   60.45532
1977   0.05897   0.00858   0.00806   1.00000   0.05897   0.00858   0.00806   1.00000   60.37598
1978   0.05904   0.00983   0.00864   1.00000   0.05904   0.00983   0.00864   1.00000   60.46753
1979   0.05905   0.00998   0.01025   1.00000   0.05905   0.00998   0.01025   1.00000   60.48889
1980   0.05905   0.01047   0.00870   1.00000   0.05905   0.01047   0.00870   1.00000   60.47363
1981   0.05903   0.00986   0.00931   1.00000   0.05903   0.00986   0.00931   1.00000   60.41565
1982   0.05908   0.01218   0.00842   1.00000   0.05908   0.01218   0.00842   1.00000   60.54382
1983   0.05911   0.01062   0.00790   1.00000   0.05911   0.01062   0.00790   1.00000   60.48584
1984   0.05909   0.00958   0.00940   1.00000   0.05909   0.00958   0.00940   1.00000   60.44312
1985   0.05903   0.00967   0.00879   1.00000   0.05903   0.00967   0.00879   1.00000   60.46143
1986   0.05910   0.00955   0.01147   1.00000   0.05910   0.00955   0.01147   1.00000   60.43091
1987   0.05913   0.01025   0.00980   1.00000   0.05913   0.01025   0.00980   1.00000   60.35767
1988   0.05905   0.01306   0.00821   1.00000   0.05905   0.01306   0.00821   1.00000   60.40955
1989   0.05892   0.01001   0.01096   1.00000   0.05892   0.01001   0.01096   1.00000   60.52551
1990   0.05906   0.00885   0.00931   1.00000   0.05906   0.00885   0.00931   1.00000   60.51636
1991   0.05905   0.01035   0.00806   1.00000   0.05905   0.01035   0.00806   1.00000   60.34851
1992   0.05902   0.01135   0.00916   1.00000   0.05902   0.01135   0.00916   1.00000   60.53162
1993   0.05900   0.01032   0.01001   1.00000   0.05900   0.01032   0.01001   1.00000   60.53467
1994   0.05911   0.01059   0.00757   1.00000   0.05911   0.01059   0.00757   1.00000   60.53162
1995   0.05909   0.01062   0.01144   1.00000   0.05909   0.01062   0.01144   1.00000   60.50415
1996   0.05906   0.01038   0.00855   1.00000   0.05906   0.01038   0.00855   1.00000   60.40649
1997   0.05910   0.01068   0.00967   1.00000   0.05910   0.01068   0.00967   1.00000   60.44922
1998   0.05910   0.01117   0.00958   1.00000   0.05910   0.01117   0.00958   1.00000   60.44922
1999   0.05905   0.00974   0.01135   1.00000   0.05905   0.00974   0.01135   1.00000   60.45837
2000   0.05899   0.00909   0.00778   1.00000   0.05899   0.00909   0.00778   1.00000   60.48279
