Sampling rate: 10000.000 samples/sec
Screen size: 2000 samples
DOP average: 1 SOPsamples
Start time: 16:23:31 5/18/2021
Interval: 0.000100000 sec
(Waveform type: 1,3,4,5)
Index      S0(mW)      S1      S2      S3      S0(mW)      S1      S2      S3      DOP
1   0.07978   0.88684   -0.41630   0.20093   0.07978   0.88684   -0.41630   0.20093   102.16675
2   0.07976   0.88617   -0.41804   0.20032   0.07976   0.88617   -0.41804   0.20032   102.22473
3   0.07975   0.88702   -0.41646   0.20042   0.07975   0.88702   -0.41646   0.20042   102.21558
4   0.07979   0.88705   -0.41615   0.20045   0.07979   0.88705   -0.41615   0.20045   102.13318
5   0.07980   0.88736   -0.41557   0.20084   0.07980   0.88736   -0.41557   0.20084   102.14539
6   0.07975   0.88711   -0.41591   0.20029   0.07975   0.88711   -0.41591   0.20029   102.17896
7   0.07968   0.88684   -0.41685   0.20002   0.07968   0.88684   -0.41685   0.20002   102.27356
8   0.07966   0.88678   -0.41636   0.20142   0.07966   0.88678   -0.41636   0.20142   102.16064
9   0.07972   0.88720   -0.41588   0.20081   0.07972   0.88720   -0.41588   0.20081   102.12402
10   0.07969   0.88736   -0.41615   0.19938   0.07969   0.88736   -0.41615   0.19938   102.23999
11   0.07964   0.88754   -0.41533   0.20029   0.07964   0.88754   -0.41533   0.20029   102.22778
12   0.07981   0.88693   -0.41588   0.20121   0.07981   0.88693   -0.41588   0.20121   102.12097
13   0.07977   0.88672   -0.41700   0.20063   0.07977   0.88672   -0.41700   0.20063   102.14539
14   0.07970   0.88665   -0.41740   0.19962   0.07970   0.88665   -0.41740   0.19962   102.27356
15   0.07973   0.88726   -0.41606   0.19984   0.07973   0.88726   -0.41606   0.19984   102.22778
16   0.07983   0.88702   -0.41597   0.20093   0.07983   0.88702   -0.41597   0.20093   102.10876
17   0.07981   0.88684   -0.41685   0.20011   0.07981   0.88684   -0.41685   0.20011   102.14233
18   0.07974   0.88690   -0.41725   0.19916   0.07974   0.88690   -0.41725   0.19916   102.24915
19   0.07959   0.88693   -0.41664   0.19980   0.07959   0.88693   -0.41664   0.19980   102.20642
20   0.07964   0.88708   -0.41633   0.19984   0.07964   0.88708   -0.41633   0.19984   102.12402
21   0.07973   0.88711   -0.41609   0.20051   0.07973   0.88711   -0.41609   0.20051   102.16980
22   0.07967   0.88638   -0.41789   0.19980   0.07967   0.88638   -0.41789   0.19980   102.27356
23   0.07974   0.88681   -0.41688   0.19993   0.07974   0.88681   -0.41688   0.19993   102.21558
24   0.07973   0.88681   -0.41646   0.20051   0.07973   0.88681   -0.41646   0.20051   102.15759
25   0.07973   0.88687   -0.41655   0.20026   0.07973   0.88687   -0.41655   0.20026   102.17896
26   0.07974   0.88672   -0.41743   0.19965   0.07974   0.88672   -0.41743   0.19965   102.26135
27   0.07980   0.88681   -0.41630   0.20124   0.07980   0.88681   -0.41630   0.20124   102.17896
28   0.07984   0.88662   -0.41716   0.20026   0.07984   0.88662   -0.41716   0.20026   102.17590
29   0.07978   0.88739   -0.41624   0.19907   0.07978   0.88739   -0.41624   0.19907   102.20032
30   0.07980   0.88665   -0.41749   0.19944   0.07980   0.88665   -0.41749   0.19944   102.22473
31   0.07985   0.88702   -0.41661   0.19938   0.07985   0.88702   -0.41661   0.19938   102.15454
32   0.07978   0.88647   -0.41740   0.20026   0.07978   0.88647   -0.41740   0.20026   102.19116
33   0.07974   0.88638   -0.41762   0.20029   0.07974   0.88638   -0.41762   0.20029   102.27051
34   0.07977   0.88687   -0.41646   0.20066   0.07977   0.88687   -0.41646   0.20066   102.17896
35   0.07976   0.88659   -0.41719   0.20069   0.07976   0.88659   -0.41719   0.20069   102.12097
36   0.07965   0.88705   -0.41655   0.19968   0.07965   0.88705   -0.41655   0.19968   102.23999
37   0.07970   0.88693   -0.41624   0.20099   0.07970   0.88693   -0.41624   0.20099   102.21558
38   0.07979   0.88653   -0.41719   0.20090   0.07979   0.88653   -0.41719   0.20090   102.13318
39   0.07987   0.88614   -0.41795   0.20090   0.07987   0.88614   -0.41795   0.20090   102.18811
40   0.07968   0.88632   -0.41783   0.20011   0.07968   0.88632   -0.41783   0.20011   102.24915
41   0.07964   0.88684   -0.41646   0.20087   0.07964   0.88684   -0.41646   0.20087   102.21863
42   0.07983   0.88644   -0.41774   0.20020   0.07983   0.88644   -0.41774   0.20020   102.13318
43   0.07986   0.88650   -0.41758   0.20011   0.07986   0.88650   -0.41758   0.20011   102.20032
44   0.07980   0.88653   -0.41716   0.20075   0.07980   0.88653   -0.41716   0.20075   102.28271
45   0.07978   0.88647   -0.41685   0.20136   0.07978   0.88647   -0.41685   0.20136   102.17896
46   0.07981   0.88699   -0.41646   0.19990   0.07981   0.88699   -0.41646   0.19990   102.18811
47   0.07978   0.88675   -0.41688   0.19977   0.07978   0.88675   -0.41688   0.19977   102.23694
48   0.07969   0.88644   -0.41777   0.19984   0.07969   0.88644   -0.41777   0.19984   102.28577
49   0.07968   0.88617   -0.41786   0.20121   0.07968   0.88617   -0.41786   0.20121   102.14844
50   0.07972   0.88644   -0.41752   0.20063   0.07972   0.88644   -0.41752   0.20063   102.14539
51   0.07972   0.88653   -0.41789   0.19944   0.07972   0.88653   -0.41789   0.19944   102.22778
52   0.07968   0.88629   -0.41813   0.19987   0.07968   0.88629   -0.41813   0.19987   102.28577
53   0.07978   0.88672   -0.41719   0.19993   0.07978   0.88672   -0.41719   0.19993   102.15454
54   0.07983   0.88614   -0.41820   0.20002   0.07983   0.88614   -0.41820   0.20002   102.20032
55   0.07988   0.88647   -0.41777   0.19977   0.07988   0.88647   -0.41777   0.19977   102.20947
56   0.07967   0.88662   -0.41713   0.20042   0.07967   0.88662   -0.41713   0.20042   102.25220
57   0.07963   0.88604   -0.41853   0.20011   0.07963   0.88604   -0.41853   0.20011   102.10266
58   0.07982   0.88656   -0.41728   0.19990   0.07982   0.88656   -0.41728   0.19990   102.18811
59   0.07978   0.88644   -0.41740   0.20060   0.07978   0.88644   -0.41740   0.20060   102.20032
60   0.07969   0.88610   -0.41844   0.20026   0.07969   0.88610   -0.41844   0.20026   102.19421
61   0.07974   0.88672   -0.41688   0.20054   0.07974   0.88672   -0.41688   0.20054   102.14539
62   0.07974   0.88620   -0.41807   0.20017   0.07974   0.88620   -0.41807   0.20017   102.20337
63   0.07960   0.88632   -0.41801   0.20005   0.07960   0.88632   -0.41801   0.20005   102.28882
64   0.07968   0.88629   -0.41789   0.20042   0.07968   0.88629   -0.41789   0.20042   102.19421
65   0.07969   0.88659   -0.41688   0.20112   0.07969   0.88659   -0.41688   0.20112   102.13623
66   0.07971   0.88635   -0.41780   0.20029   0.07971   0.88635   -0.41780   0.20029   102.19116
67   0.07968   0.88653   -0.41722   0.20048   0.07968   0.88653   -0.41722   0.20048   102.23999
68   0.07972   0.88614   -0.41798   0.20060   0.07972   0.88614   -0.41798   0.20060   102.21558
69   0.07977   0.88626   -0.41786   0.20014   0.07977   0.88626   -0.41786   0.20014   102.17896
70   0.07974   0.88647   -0.41768   0.19959   0.07974   0.88647   -0.41768   0.19959   102.19116
71   0.07973   0.88577   -0.41884   0.20057   0.07973   0.88577   -0.41884   0.20057   102.23694
72   0.07978   0.88601   -0.41832   0.20011   0.07978   0.88601   -0.41832   0.20011   102.14539
73   0.07978   0.88586   -0.41871   0.20042   0.07978   0.88586   -0.41871   0.20042   102.20337
74   0.07972   0.88595   -0.41862   0.20005   0.07972   0.88595   -0.41862   0.20005   102.27356
75   0.07971   0.88693   -0.41679   0.19965   0.07971   0.88693   -0.41679   0.19965   102.23694
76   0.07972   0.88678   -0.41700   0.20026   0.07972   0.88678   -0.41700   0.20026   102.14539
77   0.07962   0.88653   -0.41752   0.19999   0.07962   0.88653   -0.41752   0.19999   102.21863
78   0.07966   0.88678   -0.41713   0.19953   0.07966   0.88678   -0.41713   0.19953   102.28577
79   0.07972   0.88653   -0.41728   0.20045   0.07972   0.88653   -0.41728   0.20045   102.16980
80   0.07974   0.88650   -0.41758   0.20005   0.07974   0.88650   -0.41758   0.20005   102.17896
81   0.07966   0.88675   -0.41697   0.20014   0.07966   0.88675   -0.41697   0.20014   102.27356
82   0.07970   0.88638   -0.41786   0.19977   0.07970   0.88638   -0.41786   0.19977   102.27356
83   0.07978   0.88653   -0.41740   0.20048   0.07978   0.88653   -0.41740   0.20048   102.13318
84   0.07974   0.88632   -0.41798   0.19974   0.07974   0.88632   -0.41798   0.19974   102.19116
85   0.07972   0.88653   -0.41783   0.19962   0.07972   0.88653   -0.41783   0.19962   102.24915
86   0.07970   0.88604   -0.41844   0.20032   0.07970   0.88604   -0.41844   0.20032   102.23999
87   0.07984   0.88626   -0.41768   0.20057   0.07984   0.88626   -0.41768   0.20057   102.09656
88   0.07977   0.88601   -0.41841   0.20035   0.07977   0.88601   -0.41841   0.20035   102.20337
89   0.07965   0.88598   -0.41868   0.20014   0.07965   0.88598   -0.41868   0.20014   102.27356
90   0.07964   0.88647   -0.41774   0.19990   0.07964   0.88647   -0.41774   0.19990   102.19421
91   0.07970   0.88617   -0.41786   0.20121   0.07970   0.88617   -0.41786   0.20121   102.12402
92   0.07966   0.88617   -0.41804   0.20020   0.07966   0.88617   -0.41804   0.20020   102.20642
93   0.07962   0.88604   -0.41829   0.20038   0.07962   0.88604   -0.41829   0.20038   102.28577
94   0.07972   0.88604   -0.41826   0.20078   0.07972   0.88604   -0.41826   0.20078   102.19116
95   0.07976   0.88626   -0.41810   0.19987   0.07976   0.88626   -0.41810   0.19987   102.13318
96   0.07972   0.88638   -0.41755   0.20048   0.07972   0.88638   -0.41755   0.20048   102.21558
97   0.07970   0.88632   -0.41816   0.19956   0.07970   0.88632   -0.41816   0.19956   102.21558
98   0.07978   0.88617   -0.41826   0.19980   0.07978   0.88617   -0.41826   0.19980   102.20337
99   0.07977   0.88623   -0.41755   0.20075   0.07977   0.88623   -0.41755   0.20075   102.15759
100   0.07974   0.88662   -0.41798   0.19846   0.07974   0.88662   -0.41798   0.19846   102.22473
101   0.07972   0.88665   -0.41710   0.20017   0.07972   0.88665   -0.41710   0.20017   102.21558
102   0.07978   0.88629   -0.41762   0.20042   0.07978   0.88629   -0.41762   0.20042   102.19116
103   0.07967   0.88610   -0.41823   0.20063   0.07967   0.88610   -0.41823   0.20063   102.21558
104   0.07957   0.88607   -0.41823   0.20008   0.07957   0.88607   -0.41823   0.20008   102.24304
105   0.07966   0.88595   -0.41807   0.20115   0.07966   0.88595   -0.41807   0.20115   102.22778
106   0.07970   0.88595   -0.41844   0.20048   0.07970   0.88595   -0.41844   0.20048   102.16980
107   0.07969   0.88580   -0.41871   0.20078   0.07969   0.88580   -0.41871   0.20078   102.22778
108   0.07968   0.88626   -0.41820   0.19996   0.07968   0.88626   -0.41820   0.19996   102.26135
109   0.07970   0.88595   -0.41789   0.20133   0.07970   0.88595   -0.41789   0.20133   102.19116
110   0.07978   0.88620   -0.41844   0.19996   0.07978   0.88620   -0.41844   0.19996   102.14539
111   0.07969   0.88623   -0.41844   0.19950   0.07969   0.88623   -0.41844   0.19950   102.21558
112   0.07974   0.88589   -0.41923   0.19922   0.07974   0.88589   -0.41923   0.19922   102.26135
113   0.07978   0.88617   -0.41823   0.20054   0.07978   0.88617   -0.41823   0.20054   102.20032
114   0.07978   0.88665   -0.41737   0.19980   0.07978   0.88665   -0.41737   0.19980   102.20337
115   0.07973   0.88681   -0.41682   0.20042   0.07973   0.88681   -0.41682   0.20042   102.24915
116   0.07975   0.88595   -0.41902   0.19974   0.07975   0.88595   -0.41902   0.19974   102.20337
117   0.07975   0.88595   -0.41804   0.20124   0.07975   0.88595   -0.41804   0.20124   102.14539
118   0.07962   0.88626   -0.41780   0.20045   0.07962   0.88626   -0.41780   0.20045   102.23999
119   0.07972   0.88653   -0.41749   0.20005   0.07972   0.88653   -0.41749   0.20005   102.26135
120   0.07982   0.88647   -0.41734   0.20096   0.07982   0.88647   -0.41734   0.20096   102.15454
121   0.07978   0.88650   -0.41700   0.20121   0.07978   0.88650   -0.41700   0.20121   102.16675
122   0.07967   0.88668   -0.41710   0.20038   0.07967   0.88668   -0.41710   0.20038   102.21558
123   0.07972   0.88623   -0.41816   0.19984   0.07972   0.88623   -0.41816   0.19984   102.26135
124   0.07979   0.88650   -0.41685   0.20106   0.07979   0.88650   -0.41685   0.20106   102.15454
125   0.07975   0.88623   -0.41734   0.20154   0.07975   0.88623   -0.41734   0.20154   102.17896
126   0.07969   0.88638   -0.41749   0.20051   0.07969   0.88638   -0.41749   0.20051   102.27356
127   0.07967   0.88626   -0.41823   0.20017   0.07967   0.88626   -0.41823   0.20017   102.23999
128   0.07982   0.88641   -0.41765   0.19962   0.07982   0.88641   -0.41765   0.19962   102.17896
129   0.07977   0.88617   -0.41810   0.19999   0.07977   0.88617   -0.41810   0.19999   102.19116
130   0.07966   0.88656   -0.41737   0.19996   0.07966   0.88656   -0.41737   0.19996   102.27356
131   0.07966   0.88629   -0.41755   0.20078   0.07966   0.88629   -0.41755   0.20078   102.21558
132   0.07968   0.88601   -0.41838   0.20060   0.07968   0.88601   -0.41838   0.20060   102.15759
133   0.07970   0.88598   -0.41838   0.20063   0.07970   0.88598   -0.41838   0.20063   102.18201
134   0.07961   0.88580   -0.41844   0.20099   0.07961   0.88580   -0.41844   0.20099   102.27661
135   0.07967   0.88559   -0.41877   0.20118   0.07967   0.88559   -0.41877   0.20118   102.22778
136   0.07974   0.88623   -0.41758   0.20142   0.07974   0.88623   -0.41758   0.20142   102.13318
137   0.07971   0.88620   -0.41792   0.20038   0.07971   0.88620   -0.41792   0.20038   102.22778
138   0.07962   0.88601   -0.41859   0.20005   0.07962   0.88601   -0.41859   0.20005   102.23083
139   0.07945   0.88614   -0.41820   0.20038   0.07945   0.88614   -0.41820   0.20038   102.17590
140   0.07967   0.88614   -0.41826   0.20038   0.07967   0.88614   -0.41826   0.20038   102.18201
141   0.07982   0.88635   -0.41762   0.20029   0.07982   0.88635   -0.41762   0.20029   102.21252
142   0.07974   0.88623   -0.41798   0.20026   0.07974   0.88623   -0.41798   0.20026   102.24915
143   0.07966   0.88610   -0.41801   0.20072   0.07966   0.88610   -0.41801   0.20072   102.16064
144   0.07959   0.88534   -0.41926   0.20151   0.07959   0.88534   -0.41926   0.20151   102.25220
145   0.07961   0.88577   -0.41920   0.19956   0.07961   0.88577   -0.41920   0.19956   102.26440
146   0.07968   0.88562   -0.41877   0.20112   0.07968   0.88562   -0.41877   0.20112   102.20337
147   0.07966   0.88598   -0.41810   0.20112   0.07966   0.88598   -0.41810   0.20112   102.16980
148   0.07960   0.88580   -0.41896   0.20026   0.07960   0.88580   -0.41896   0.20026   102.25220
149   0.07965   0.88632   -0.41838   0.19956   0.07965   0.88632   -0.41838   0.19956   102.22778
150   0.07974   0.88604   -0.41816   0.20069   0.07974   0.88604   -0.41816   0.20069   102.13318
151   0.07975   0.88571   -0.41911   0.20057   0.07975   0.88571   -0.41911   0.20057   102.17896
152   0.07969   0.88614   -0.41868   0.19916   0.07969   0.88614   -0.41868   0.19916   102.24915
153   0.07971   0.88632   -0.41762   0.20023   0.07971   0.88632   -0.41762   0.20023   102.22778
154   0.07980   0.88589   -0.41820   0.20124   0.07980   0.88589   -0.41820   0.20124   102.14539
155   0.07985   0.88614   -0.41780   0.20115   0.07985   0.88614   -0.41780   0.20115   102.20032
156   0.07975   0.88589   -0.41847   0.20048   0.07975   0.88589   -0.41847   0.20048   102.28271
157   0.07972   0.88604   -0.41838   0.20038   0.07972   0.88604   -0.41838   0.20038   102.23694
158   0.07978   0.88571   -0.41841   0.20185   0.07978   0.88571   -0.41841   0.20185   102.13318
159   0.07966   0.88604   -0.41795   0.20081   0.07966   0.88604   -0.41795   0.20081   102.23999
160   0.07972   0.88617   -0.41795   0.20084   0.07972   0.88617   -0.41795   0.20084   102.31934
161   0.07974   0.88577   -0.41911   0.19944   0.07974   0.88577   -0.41911   0.19944   102.20337
162   0.07973   0.88559   -0.41865   0.20133   0.07973   0.88559   -0.41865   0.20133   102.15759
163   0.07976   0.88543   -0.42018   0.19895   0.07976   0.88543   -0.42018   0.19895   102.29492
164   0.07971   0.88601   -0.41841   0.20032   0.07971   0.88601   -0.41841   0.20032   102.27356
165   0.07977   0.88607   -0.41820   0.20026   0.07977   0.88607   -0.41820   0.20026   102.20337
166   0.07978   0.88604   -0.41804   0.20103   0.07978   0.88604   -0.41804   0.20103   102.16675
167   0.07976   0.88577   -0.41917   0.19965   0.07976   0.88577   -0.41917   0.19965   102.24915
168   0.07975   0.88623   -0.41853   0.19935   0.07975   0.88623   -0.41853   0.19935   102.22473
169   0.07979   0.88607   -0.41847   0.20045   0.07979   0.88607   -0.41847   0.20045   102.21252
170   0.07976   0.88598   -0.41847   0.20035   0.07976   0.88598   -0.41847   0.20035   102.20337
171   0.07969   0.88589   -0.41877   0.20020   0.07969   0.88589   -0.41877   0.20020   102.23999
172   0.07968   0.88623   -0.41789   0.20057   0.07968   0.88623   -0.41789   0.20057   102.23999
173   0.07965   0.88632   -0.41774   0.20014   0.07965   0.88632   -0.41774   0.20014   102.21863
174   0.07971   0.88650   -0.41758   0.19980   0.07971   0.88650   -0.41758   0.19980   102.22778
175   0.07966   0.88595   -0.41859   0.20017   0.07966   0.88595   -0.41859   0.20017   102.23999
176   0.07974   0.88620   -0.41780   0.20096   0.07974   0.88620   -0.41780   0.20096   102.14539
177   0.07975   0.88653   -0.41725   0.20057   0.07975   0.88653   -0.41725   0.20057   102.16980
178   0.07973   0.88598   -0.41899   0.19947   0.07973   0.88598   -0.41899   0.19947   102.24915
179   0.07973   0.88607   -0.41838   0.20060   0.07973   0.88607   -0.41838   0.20060   102.21558
180   0.07977   0.88614   -0.41816   0.20054   0.07977   0.88614   -0.41816   0.20054   102.16675
181   0.07976   0.88595   -0.41844   0.20045   0.07976   0.88595   -0.41844   0.20045   102.23694
182   0.07970   0.88604   -0.41853   0.19974   0.07970   0.88604   -0.41853   0.19974   102.28577
183   0.07980   0.88629   -0.41737   0.20115   0.07980   0.88629   -0.41737   0.20115   102.19116
184   0.07978   0.88620   -0.41844   0.19959   0.07978   0.88620   -0.41844   0.19959   102.16675
185   0.07969   0.88601   -0.41899   0.19904   0.07969   0.88601   -0.41899   0.19904   102.24915
186   0.07957   0.88614   -0.41829   0.19990   0.07957   0.88614   -0.41829   0.19990   102.28882
187   0.07971   0.88617   -0.41801   0.20032   0.07971   0.88617   -0.41801   0.20032   102.18201
188   0.07973   0.88604   -0.41847   0.19999   0.07973   0.88604   -0.41847   0.19999   102.17896
189   0.07963   0.88614   -0.41804   0.20063   0.07963   0.88614   -0.41804   0.20063   102.25220
190   0.07965   0.88614   -0.41835   0.20063   0.07965   0.88614   -0.41835   0.20063   102.25220
191   0.07978   0.88632   -0.41768   0.20020   0.07978   0.88632   -0.41768   0.20020   102.10876
192   0.07978   0.88650   -0.41758   0.19977   0.07978   0.88650   -0.41758   0.19977   102.17896
193   0.07967   0.88598   -0.41850   0.19996   0.07967   0.88598   -0.41850   0.19996   102.27356
194   0.07973   0.88586   -0.41893   0.19999   0.07973   0.88586   -0.41893   0.19999   102.24915
195   0.07983   0.88607   -0.41801   0.20084   0.07983   0.88607   -0.41801   0.20084   102.13318
196   0.07978   0.88632   -0.41829   0.19935   0.07978   0.88632   -0.41829   0.19935   102.16675
197   0.07969   0.88672   -0.41716   0.20002   0.07969   0.88672   -0.41716   0.20002   102.26135
198   0.07975   0.88623   -0.41838   0.19932   0.07975   0.88623   -0.41838   0.19932   102.22473
199   0.07977   0.88598   -0.41850   0.20026   0.07977   0.88598   -0.41850   0.20026   102.15759
200   0.07967   0.88629   -0.41826   0.19977   0.07967   0.88629   -0.41826   0.19977   102.20337
201   0.07964   0.88647   -0.41768   0.19980   0.07964   0.88647   -0.41768   0.19980   102.26440
202   0.07971   0.88632   -0.41768   0.20078   0.07971   0.88632   -0.41768   0.20078   102.15759
203   0.07975   0.88583   -0.41923   0.19962   0.07975   0.88583   -0.41923   0.19962   102.16980
204   0.07970   0.88553   -0.41932   0.20048   0.07970   0.88553   -0.41932   0.20048   102.23999
205   0.07968   0.88589   -0.41841   0.20078   0.07968   0.88589   -0.41841   0.20078   102.23999
206   0.07978   0.88595   -0.41884   0.19977   0.07978   0.88595   -0.41884   0.19977   102.19116
207   0.07973   0.88610   -0.41832   0.20008   0.07973   0.88610   -0.41832   0.20008   102.23694
208   0.07974   0.88629   -0.41792   0.20023   0.07974   0.88629   -0.41792   0.20023   102.26135
209   0.07977   0.88595   -0.41862   0.20026   0.07977   0.88595   -0.41862   0.20026   102.20337
210   0.07981   0.88617   -0.41865   0.19895   0.07981   0.88617   -0.41865   0.19895   102.16675
211   0.07976   0.88653   -0.41771   0.19977   0.07976   0.88653   -0.41771   0.19977   102.20337
212   0.07974   0.88617   -0.41826   0.19968   0.07974   0.88617   -0.41826   0.19968   102.24915
213   0.07972   0.88571   -0.41887   0.20045   0.07972   0.88571   -0.41887   0.20045   102.18201
214   0.07967   0.88675   -0.41725   0.19971   0.07967   0.88675   -0.41725   0.19971   102.18201
215   0.07966   0.88647   -0.41820   0.19938   0.07966   0.88647   -0.41820   0.19938   102.25220
216   0.07966   0.88580   -0.41942   0.19919   0.07966   0.88580   -0.41942   0.19919   102.26135
217   0.07973   0.88601   -0.41847   0.20045   0.07973   0.88601   -0.41847   0.20045   102.17896
218   0.07972   0.88607   -0.41871   0.19965   0.07972   0.88607   -0.41871   0.19965   102.22778
219   0.07956   0.88626   -0.41853   0.19919   0.07956   0.88626   -0.41853   0.19919   102.27661
220   0.07954   0.88626   -0.41743   0.20084   0.07954   0.88626   -0.41743   0.20084   102.19727
221   0.07979   0.88610   -0.41853   0.19956   0.07979   0.88610   -0.41853   0.19956   102.15454
222   0.07982   0.88614   -0.41838   0.19956   0.07982   0.88614   -0.41838   0.19956   102.23389
223   0.07971   0.88604   -0.41899   0.19935   0.07971   0.88604   -0.41899   0.19935   102.30713
224   0.07977   0.88681   -0.41713   0.19962   0.07977   0.88681   -0.41713   0.19962   102.14539
225   0.07983   0.88632   -0.41813   0.19968   0.07983   0.88632   -0.41813   0.19968   102.13318
226   0.07972   0.88607   -0.41868   0.19977   0.07972   0.88607   -0.41868   0.19977   102.26135
227   0.07971   0.88629   -0.41816   0.19962   0.07971   0.88629   -0.41816   0.19962   102.26135
228   0.07970   0.88586   -0.41871   0.20045   0.07970   0.88586   -0.41871   0.20045   102.15759
229   0.07973   0.88592   -0.41856   0.20066   0.07973   0.88592   -0.41856   0.20066   102.17896
230   0.07971   0.88592   -0.41905   0.19926   0.07971   0.88592   -0.41905   0.19926   102.27356
231   0.07973   0.88607   -0.41801   0.20087   0.07973   0.88607   -0.41801   0.20087   102.22778
232   0.07973   0.88571   -0.41881   0.20103   0.07973   0.88571   -0.41881   0.20103   102.17896
233   0.07970   0.88577   -0.41856   0.20078   0.07970   0.88577   -0.41856   0.20078   102.21558
234   0.07971   0.88592   -0.41847   0.20057   0.07971   0.88592   -0.41847   0.20057   102.27356
235   0.07978   0.88574   -0.41862   0.20115   0.07978   0.88574   -0.41862   0.20115   102.23694
236   0.07978   0.88681   -0.41633   0.20075   0.07978   0.88681   -0.41633   0.20075   102.17896
237   0.07974   0.88638   -0.41755   0.20075   0.07974   0.88638   -0.41755   0.20075   102.19116
238   0.07978   0.88650   -0.41746   0.20017   0.07978   0.88650   -0.41746   0.20017   102.25830
239   0.07989   0.88641   -0.41783   0.19977   0.07989   0.88641   -0.41783   0.19977   102.18811
240   0.07974   0.88617   -0.41810   0.19999   0.07974   0.88617   -0.41810   0.19999   102.22473
241   0.07952   0.88629   -0.41807   0.19944   0.07952   0.88629   -0.41807   0.19944   102.25525
242   0.07967   0.88580   -0.41926   0.19996   0.07967   0.88580   -0.41926   0.19996   102.22778
243   0.07983   0.88592   -0.41862   0.20057   0.07983   0.88592   -0.41862   0.20057   102.16675
244   0.07975   0.88626   -0.41816   0.19984   0.07975   0.88626   -0.41816   0.19984   102.22473
245   0.07967   0.88598   -0.41905   0.19929   0.07967   0.88598   -0.41905   0.19929   102.25220
246   0.07969   0.88610   -0.41893   0.19922   0.07969   0.88610   -0.41893   0.19922   102.20337
247   0.07976   0.88623   -0.41801   0.20005   0.07976   0.88623   -0.41801   0.20005   102.20337
248   0.07975   0.88598   -0.41914   0.19886   0.07975   0.88598   -0.41914   0.19886   102.24915
249   0.07971   0.88589   -0.41905   0.19956   0.07971   0.88589   -0.41905   0.19956   102.27356
250   0.07976   0.88583   -0.41859   0.20096   0.07976   0.88583   -0.41859   0.20096   102.17896
251   0.07980   0.88604   -0.41868   0.19968   0.07980   0.88604   -0.41868   0.19968   102.21252
252   0.07970   0.88623   -0.41850   0.19971   0.07970   0.88623   -0.41850   0.19971   102.27356
253   0.07969   0.88604   -0.41856   0.20017   0.07969   0.88604   -0.41856   0.20017   102.24915
254   0.07981   0.88556   -0.41942   0.20063   0.07981   0.88556   -0.41942   0.20063   102.15454
255   0.07979   0.88577   -0.41917   0.19990   0.07979   0.88577   -0.41917   0.19990   102.19116
256   0.07964   0.88604   -0.41826   0.20035   0.07964   0.88604   -0.41826   0.20035   102.29797
257   0.07938   0.88592   -0.41884   0.19974   0.07938   0.88592   -0.41884   0.19974   102.24609
258   0.07976   0.88559   -0.41908   0.20103   0.07976   0.88559   -0.41908   0.20103   102.14539
259   0.07978   0.88571   -0.41972   0.19941   0.07978   0.88571   -0.41972   0.19941   102.24915
260   0.07958   0.88598   -0.41899   0.19926   0.07958   0.88598   -0.41899   0.19926   102.26440
261   0.07964   0.88586   -0.41871   0.20057   0.07964   0.88586   -0.41871   0.20057   102.19421
262   0.07980   0.88589   -0.41862   0.20054   0.07980   0.88589   -0.41862   0.20054   102.12097
263   0.07974   0.88553   -0.41942   0.20045   0.07974   0.88553   -0.41942   0.20045   102.27051
264   0.07966   0.88574   -0.41929   0.19956   0.07966   0.88574   -0.41929   0.19956   102.27356
265   0.07975   0.88586   -0.41862   0.20060   0.07975   0.88586   -0.41862   0.20060   102.20337
266   0.07975   0.88568   -0.41917   0.20032   0.07975   0.88568   -0.41917   0.20032   102.17896
267   0.07972   0.88580   -0.41899   0.20005   0.07972   0.88580   -0.41899   0.20005   102.26135
268   0.07969   0.88647   -0.41798   0.19950   0.07969   0.88647   -0.41798   0.19950   102.21558
269   0.07966   0.88635   -0.41786   0.20011   0.07966   0.88635   -0.41786   0.20011   102.18201
270   0.07971   0.88592   -0.41914   0.19910   0.07971   0.88592   -0.41914   0.19910   102.21558
271   0.07966   0.88617   -0.41813   0.20032   0.07966   0.88617   -0.41813   0.20032   102.25220
272   0.07968   0.88577   -0.41856   0.20093   0.07968   0.88577   -0.41856   0.20093   102.23999
273   0.07976   0.88595   -0.41908   0.19926   0.07976   0.88595   -0.41908   0.19926   102.16675
274   0.07973   0.88549   -0.41954   0.20051   0.07973   0.88549   -0.41954   0.20051   102.19116
275   0.07969   0.88580   -0.41881   0.20060   0.07969   0.88580   -0.41881   0.20060   102.26135
276   0.07978   0.88620   -0.41801   0.20023   0.07978   0.88620   -0.41801   0.20023   102.21252
277   0.07977   0.88620   -0.41838   0.19999   0.07977   0.88620   -0.41838   0.19999   102.19116
278   0.07973   0.88607   -0.41853   0.19999   0.07973   0.88607   -0.41853   0.19999   102.23694
279   0.07975   0.88589   -0.41853   0.20066   0.07975   0.88589   -0.41853   0.20066   102.24915
280   0.07979   0.88571   -0.41929   0.19977   0.07979   0.88571   -0.41929   0.19977   102.16675
281   0.07968   0.88531   -0.41981   0.20032   0.07968   0.88531   -0.41981   0.20032   102.21558
282   0.07961   0.88568   -0.41957   0.19935   0.07961   0.88568   -0.41957   0.19935   102.28577
283   0.07968   0.88580   -0.41908   0.19962   0.07968   0.88580   -0.41908   0.19962   102.24915
284   0.07972   0.88592   -0.41804   0.20139   0.07972   0.88592   -0.41804   0.20139   102.18201
285   0.07968   0.88595   -0.41859   0.20042   0.07968   0.88595   -0.41859   0.20042   102.20337
286   0.07968   0.88623   -0.41881   0.19877   0.07968   0.88623   -0.41881   0.19877   102.23999
287   0.07977   0.88604   -0.41859   0.20011   0.07977   0.88604   -0.41859   0.20011   102.16675
288   0.07982   0.88626   -0.41813   0.19965   0.07982   0.88626   -0.41813   0.19965   102.16675
289   0.07974   0.88659   -0.41789   0.19910   0.07974   0.88659   -0.41789   0.19910   102.19116
290   0.07972   0.88626   -0.41810   0.19996   0.07972   0.88626   -0.41810   0.19996   102.27356
291   0.07983   0.88653   -0.41734   0.19987   0.07983   0.88653   -0.41734   0.19987   102.15454
292   0.07978   0.88617   -0.41826   0.20005   0.07978   0.88617   -0.41826   0.20005   102.17896
293   0.07975   0.88632   -0.41810   0.19947   0.07975   0.88632   -0.41810   0.19947   102.22473
294   0.07968   0.88629   -0.41725   0.20148   0.07968   0.88629   -0.41725   0.20148   102.26135
295   0.07977   0.88543   -0.41969   0.20002   0.07977   0.88543   -0.41969   0.20002   102.13318
296   0.07967   0.88601   -0.41841   0.20023   0.07967   0.88601   -0.41841   0.20023   102.18201
297   0.07964   0.88595   -0.41893   0.19962   0.07964   0.88595   -0.41893   0.19962   102.26440
298   0.07966   0.88598   -0.41820   0.20093   0.07966   0.88598   -0.41820   0.20093   102.21558
299   0.07976   0.88656   -0.41740   0.19965   0.07976   0.88656   -0.41740   0.19965   102.17896
300   0.07973   0.88659   -0.41752   0.19944   0.07973   0.88659   -0.41752   0.19944   102.20337
301   0.07966   0.88580   -0.41939   0.19959   0.07966   0.88580   -0.41939   0.19959   102.25220
302   0.07975   0.88595   -0.41868   0.20023   0.07975   0.88595   -0.41868   0.20023   102.20337
303   0.07978   0.88632   -0.41743   0.20096   0.07978   0.88632   -0.41743   0.20096   102.14539
304   0.07978   0.88592   -0.41905   0.19941   0.07978   0.88592   -0.41905   0.19941   102.19116
305   0.07967   0.88668   -0.41685   0.20054   0.07967   0.88668   -0.41685   0.20054   102.27356
306   0.07978   0.88623   -0.41762   0.20127   0.07978   0.88623   -0.41762   0.20127   102.19116
307   0.07975   0.88620   -0.41804   0.20042   0.07975   0.88620   -0.41804   0.20042   102.22473
308   0.07971   0.88598   -0.41920   0.19883   0.07971   0.88598   -0.41920   0.19883   102.22778
309   0.07964   0.88607   -0.41780   0.20127   0.07964   0.88607   -0.41780   0.20127   102.20642
310   0.07966   0.88653   -0.41752   0.19999   0.07966   0.88653   -0.41752   0.19999   102.16980
311   0.07970   0.88601   -0.41865   0.19944   0.07970   0.88601   -0.41865   0.19944   102.24915
312   0.07966   0.88610   -0.41823   0.20054   0.07966   0.88610   -0.41823   0.20054   102.23999
313   0.07971   0.88583   -0.41920   0.19987   0.07971   0.88583   -0.41920   0.19987   102.20337
314   0.07975   0.88577   -0.41911   0.19959   0.07975   0.88577   -0.41911   0.19959   102.19116
315   0.07970   0.88610   -0.41856   0.19922   0.07970   0.88610   -0.41856   0.19922   102.24915
316   0.07973   0.88614   -0.41826   0.20020   0.07973   0.88614   -0.41826   0.20020   102.24915
317   0.07978   0.88595   -0.41829   0.20084   0.07978   0.88595   -0.41829   0.20084   102.20337
318   0.07974   0.88623   -0.41713   0.20222   0.07974   0.88623   -0.41713   0.20222   102.19116
319   0.07972   0.88614   -0.41780   0.20066   0.07972   0.88614   -0.41780   0.20066   102.23694
320   0.07985   0.88589   -0.41853   0.20063   0.07985   0.88589   -0.41853   0.20063   102.25830
321   0.07987   0.88635   -0.41798   0.19980   0.07987   0.88635   -0.41798   0.19980   102.15454
322   0.07974   0.88626   -0.41823   0.20002   0.07974   0.88626   -0.41823   0.20002   102.15759
323   0.07959   0.88620   -0.41871   0.19938   0.07959   0.88620   -0.41871   0.19938   102.27661
324   0.07966   0.88607   -0.41826   0.20005   0.07966   0.88607   -0.41826   0.20005   102.26135
325   0.07977   0.88650   -0.41783   0.19959   0.07977   0.88650   -0.41783   0.19959   102.11182
326   0.07968   0.88595   -0.41844   0.20048   0.07968   0.88595   -0.41844   0.20048   102.19421
327   0.07963   0.88638   -0.41758   0.20063   0.07963   0.88638   -0.41758   0.20063   102.25220
328   0.07970   0.88629   -0.41786   0.20032   0.07970   0.88629   -0.41786   0.20032   102.19116
329   0.07978   0.88607   -0.41823   0.20054   0.07978   0.88607   -0.41823   0.20054   102.13318
330   0.07974   0.88626   -0.41801   0.20002   0.07974   0.88626   -0.41801   0.20002   102.21558
331   0.07968   0.88617   -0.41813   0.20017   0.07968   0.88617   -0.41813   0.20017   102.26135
332   0.07978   0.88620   -0.41789   0.20087   0.07978   0.88620   -0.41789   0.20087   102.16675
333   0.07979   0.88617   -0.41777   0.20093   0.07979   0.88617   -0.41777   0.20093   102.15454
334   0.07971   0.88681   -0.41667   0.20072   0.07971   0.88681   -0.41667   0.20072   102.24915
335   0.07968   0.88623   -0.41786   0.20029   0.07968   0.88623   -0.41786   0.20029   102.28577
336   0.07973   0.88632   -0.41749   0.20081   0.07973   0.88632   -0.41749   0.20081   102.15759
337   0.07968   0.88620   -0.41838   0.20017   0.07968   0.88620   -0.41838   0.20017   102.15759
338   0.07954   0.88641   -0.41823   0.19929   0.07954   0.88641   -0.41823   0.19929   102.25525
339   0.07942   0.88629   -0.41774   0.20032   0.07942   0.88629   -0.41774   0.20032   102.21252
340   0.07966   0.88653   -0.41749   0.20045   0.07966   0.88653   -0.41749   0.20045   102.19421
341   0.07977   0.88620   -0.41820   0.20017   0.07977   0.88620   -0.41820   0.20017   102.21252
342   0.07967   0.88638   -0.41792   0.20002   0.07967   0.88638   -0.41792   0.20002   102.23999
343   0.07967   0.88693   -0.41652   0.20029   0.07967   0.88693   -0.41652   0.20029   102.18201
344   0.07969   0.88626   -0.41792   0.19996   0.07969   0.88626   -0.41792   0.19996   102.20337
345   0.07974   0.88696   -0.41676   0.19999   0.07974   0.88696   -0.41676   0.19999   102.17896
346   0.07974   0.88672   -0.41737   0.19974   0.07974   0.88672   -0.41737   0.19974   102.19116
347   0.07977   0.88614   -0.41820   0.20005   0.07977   0.88614   -0.41820   0.20005   102.14539
348   0.07974   0.88653   -0.41719   0.20045   0.07974   0.88653   -0.41719   0.20045   102.20337
349   0.07966   0.88668   -0.41688   0.20081   0.07966   0.88668   -0.41688   0.20081   102.25220
350   0.07970   0.88617   -0.41765   0.20118   0.07970   0.88617   -0.41765   0.20118   102.18201
351   0.07966   0.88586   -0.41877   0.20038   0.07966   0.88586   -0.41877   0.20038   102.14844
352   0.07965   0.88659   -0.41725   0.20023   0.07965   0.88659   -0.41725   0.20023   102.20642
353   0.07964   0.88653   -0.41777   0.19956   0.07964   0.88653   -0.41777   0.19956   102.28577
354   0.07977   0.88653   -0.41719   0.20075   0.07977   0.88653   -0.41719   0.20075   102.16675
355   0.07982   0.88626   -0.41810   0.20011   0.07982   0.88626   -0.41810   0.20011   102.18811
356   0.07978   0.88629   -0.41829   0.19935   0.07978   0.88629   -0.41829   0.19935   102.21252
357   0.07969   0.88693   -0.41676   0.19990   0.07969   0.88693   -0.41676   0.19990   102.24915
358   0.07981   0.88699   -0.41667   0.19993   0.07981   0.88699   -0.41667   0.19993   102.13318
359   0.07987   0.88659   -0.41719   0.20035   0.07987   0.88659   -0.41719   0.20035   102.15454
360   0.07976   0.88659   -0.41737   0.19987   0.07976   0.88659   -0.41737   0.19987   102.28271
361   0.07978   0.88629   -0.41737   0.20115   0.07978   0.88629   -0.41737   0.20115   102.21252
362   0.07984   0.88641   -0.41746   0.20048   0.07984   0.88641   -0.41746   0.20048   102.12097
363   0.07978   0.88678   -0.41682   0.19993   0.07978   0.88678   -0.41682   0.19993   102.15759
364   0.07963   0.88678   -0.41649   0.20115   0.07963   0.88678   -0.41649   0.20115   102.25220
365   0.07965   0.88644   -0.41725   0.20060   0.07965   0.88644   -0.41725   0.20060   102.19421
366   0.07978   0.88641   -0.41774   0.19990   0.07978   0.88641   -0.41774   0.19990   102.13318
367   0.07970   0.88662   -0.41786   0.19861   0.07970   0.88662   -0.41786   0.19861   102.22778
368   0.07964   0.88650   -0.41746   0.20008   0.07964   0.88650   -0.41746   0.20008   102.27356
369   0.07974   0.88681   -0.41643   0.20115   0.07974   0.88681   -0.41643   0.20115   102.16980
370   0.07978   0.88629   -0.41829   0.19922   0.07978   0.88629   -0.41829   0.19922   102.21252
371   0.07971   0.88665   -0.41688   0.20045   0.07971   0.88665   -0.41688   0.20045   102.23694
372   0.07972   0.88668   -0.41719   0.19984   0.07972   0.88668   -0.41719   0.19984   102.24915
373   0.07979   0.88659   -0.41679   0.20084   0.07979   0.88659   -0.41679   0.20084   102.15454
374   0.07978   0.88644   -0.41780   0.20014   0.07978   0.88644   -0.41780   0.20014   102.16675
375   0.07972   0.88717   -0.41633   0.20002   0.07972   0.88717   -0.41633   0.20002   102.21558
376   0.07973   0.88696   -0.41676   0.19984   0.07973   0.88696   -0.41676   0.19984   102.19116
377   0.07976   0.88668   -0.41707   0.20035   0.07976   0.88668   -0.41707   0.20035   102.14539
378   0.07966   0.88629   -0.41810   0.19971   0.07966   0.88629   -0.41810   0.19971   102.21558
379   0.07968   0.88644   -0.41786   0.19947   0.07968   0.88644   -0.41786   0.19947   102.24915
380   0.07972   0.88668   -0.41673   0.20063   0.07972   0.88668   -0.41673   0.20063   102.20337
381   0.07971   0.88690   -0.41667   0.19999   0.07971   0.88690   -0.41667   0.19999   102.20337
382   0.07969   0.88644   -0.41765   0.20020   0.07969   0.88644   -0.41765   0.20020   102.22778
383   0.07972   0.88659   -0.41746   0.19965   0.07972   0.88659   -0.41746   0.19965   102.23694
384   0.07978   0.88693   -0.41643   0.20084   0.07978   0.88693   -0.41643   0.20084   102.13318
385   0.07975   0.88717   -0.41575   0.20051   0.07975   0.88717   -0.41575   0.20051   102.23694
386   0.07974   0.88672   -0.41707   0.20029   0.07974   0.88672   -0.41707   0.20029   102.26135
387   0.07976   0.88726   -0.41606   0.19987   0.07976   0.88726   -0.41606   0.19987   102.19116
388   0.07981   0.88653   -0.41716   0.20057   0.07981   0.88653   -0.41716   0.20057   102.14233
389   0.07977   0.88662   -0.41685   0.20084   0.07977   0.88662   -0.41685   0.20084   102.20337
390   0.07970   0.88647   -0.41777   0.19941   0.07970   0.88647   -0.41777   0.19941   102.27356
391   0.07978   0.88662   -0.41725   0.20014   0.07978   0.88662   -0.41725   0.20014   102.16675
392   0.07972   0.88665   -0.41755   0.19959   0.07972   0.88665   -0.41755   0.19959   102.12402
393   0.07970   0.88650   -0.41749   0.19971   0.07970   0.88650   -0.41749   0.19971   102.20337
394   0.07966   0.88684   -0.41725   0.19910   0.07966   0.88684   -0.41725   0.19910   102.26135
395   0.07979   0.88672   -0.41670   0.20042   0.07979   0.88672   -0.41670   0.20042   102.14539
396   0.07978   0.88723   -0.41588   0.20032   0.07978   0.88723   -0.41588   0.20032   102.17896
397   0.07970   0.88662   -0.41685   0.20060   0.07970   0.88662   -0.41685   0.20060   102.29492
398   0.07972   0.88665   -0.41719   0.20026   0.07972   0.88665   -0.41719   0.20026   102.24915
399   0.07981   0.88681   -0.41691   0.19947   0.07981   0.88681   -0.41691   0.19947   102.14233
400   0.07980   0.88668   -0.41713   0.20057   0.07980   0.88668   -0.41713   0.20057   102.15454
401   0.07973   0.88629   -0.41752   0.20112   0.07973   0.88629   -0.41752   0.20112   102.26135
402   0.07978   0.88690   -0.41697   0.19977   0.07978   0.88690   -0.41697   0.19977   102.17896
403   0.07978   0.88696   -0.41603   0.20093   0.07978   0.88696   -0.41603   0.20093   102.15454
404   0.07973   0.88659   -0.41765   0.19974   0.07973   0.88659   -0.41765   0.19974   102.20337
405   0.07967   0.88699   -0.41655   0.20005   0.07967   0.88699   -0.41655   0.20005   102.26135
406   0.07965   0.88678   -0.41688   0.20002   0.07965   0.88678   -0.41688   0.20002   102.20642
407   0.07975   0.88690   -0.41685   0.19974   0.07975   0.88690   -0.41685   0.19974   102.16980
408   0.07970   0.88696   -0.41646   0.20014   0.07970   0.88696   -0.41646   0.20014   102.20337
409   0.07966   0.88675   -0.41673   0.20078   0.07966   0.88675   -0.41673   0.20078   102.30713
410   0.07973   0.88678   -0.41664   0.20063   0.07973   0.88678   -0.41664   0.20063   102.17896
411   0.07975   0.88659   -0.41768   0.19938   0.07975   0.88659   -0.41768   0.19938   102.19116
412   0.07975   0.88693   -0.41676   0.19947   0.07975   0.88693   -0.41676   0.19947   102.22473
413   0.07977   0.88644   -0.41746   0.20042   0.07977   0.88644   -0.41746   0.20042   102.20337
414   0.07979   0.88656   -0.41765   0.19990   0.07979   0.88656   -0.41765   0.19990   102.16675
415   0.07975   0.88699   -0.41688   0.19904   0.07975   0.88699   -0.41688   0.19904   102.22473
416   0.07976   0.88672   -0.41731   0.19950   0.07976   0.88672   -0.41731   0.19950   102.23694
417   0.07977   0.88684   -0.41652   0.20090   0.07977   0.88684   -0.41652   0.20090   102.15759
418   0.07977   0.88668   -0.41704   0.20045   0.07977   0.88668   -0.41704   0.20045   102.16675
419   0.07954   0.88662   -0.41704   0.20011   0.07954   0.88662   -0.41704   0.20011   102.22168
420   0.07948   0.88705   -0.41603   0.20072   0.07948   0.88705   -0.41603   0.20072   102.25525
421   0.07975   0.88684   -0.41655   0.20084   0.07975   0.88684   -0.41655   0.20084   102.15759
422   0.07975   0.88681   -0.41649   0.20081   0.07975   0.88681   -0.41649   0.20081   102.23694
423   0.07970   0.88699   -0.41636   0.20035   0.07970   0.88699   -0.41636   0.20035   102.24915
424   0.07972   0.88696   -0.41627   0.20002   0.07972   0.88696   -0.41627   0.20002   102.20337
425   0.07982   0.88672   -0.41609   0.20176   0.07982   0.88672   -0.41609   0.20176   102.13318
426   0.07980   0.88745   -0.41581   0.19941   0.07980   0.88745   -0.41581   0.19941   102.19116
427   0.07975   0.88711   -0.41630   0.19980   0.07975   0.88711   -0.41630   0.19980   102.28271
428   0.07981   0.88675   -0.41691   0.20005   0.07981   0.88675   -0.41691   0.20005   102.18811
429   0.07987   0.88736   -0.41591   0.20002   0.07987   0.88736   -0.41591   0.20002   102.09656
430   0.07976   0.88687   -0.41697   0.19916   0.07976   0.88687   -0.41697   0.19916   102.22473
431   0.07973   0.88696   -0.41649   0.20029   0.07973   0.88696   -0.41649   0.20029   102.27356
432   0.07980   0.88720   -0.41594   0.20035   0.07980   0.88720   -0.41594   0.20035   102.14539
433   0.07971   0.88690   -0.41682   0.19929   0.07971   0.88690   -0.41682   0.19929   102.13623
434   0.07970   0.88675   -0.41725   0.19929   0.07970   0.88675   -0.41725   0.19929   102.19116
435   0.07969   0.88696   -0.41636   0.20051   0.07969   0.88696   -0.41636   0.20051   102.26135
436   0.07978   0.88647   -0.41707   0.20072   0.07978   0.88647   -0.41707   0.20072   102.17896
437   0.07975   0.88678   -0.41621   0.20133   0.07975   0.88678   -0.41621   0.20133   102.17896
438   0.07970   0.88687   -0.41609   0.20142   0.07970   0.88687   -0.41609   0.20142   102.26135
439   0.07990   0.88662   -0.41740   0.19999   0.07990   0.88662   -0.41740   0.19999   102.18811
440   0.07985   0.88687   -0.41652   0.20042   0.07985   0.88687   -0.41652   0.20042   102.18811
441   0.07969   0.88702   -0.41624   0.20035   0.07969   0.88702   -0.41624   0.20035   102.16980
442   0.07975   0.88690   -0.41621   0.20081   0.07975   0.88690   -0.41621   0.20081   102.23694
443   0.07990   0.88675   -0.41679   0.20029   0.07990   0.88675   -0.41679   0.20029   102.16370
444   0.07987   0.88720   -0.41597   0.19993   0.07987   0.88720   -0.41597   0.19993   102.20032
445   0.07978   0.88711   -0.41685   0.19898   0.07978   0.88711   -0.41685   0.19898   102.21252
446   0.07968   0.88684   -0.41710   0.19935   0.07968   0.88684   -0.41710   0.19935   102.22778
447   0.07969   0.88708   -0.41560   0.20148   0.07969   0.88708   -0.41560   0.20148   102.18201
448   0.07975   0.88672   -0.41700   0.20026   0.07975   0.88672   -0.41700   0.20026   102.17896
449   0.07967   0.88650   -0.41713   0.20060   0.07967   0.88650   -0.41713   0.20060   102.22778
450   0.07974   0.88687   -0.41655   0.20042   0.07974   0.88687   -0.41655   0.20042   102.16980
451   0.07978   0.88693   -0.41649   0.20051   0.07978   0.88693   -0.41649   0.20051   102.12097
452   0.07974   0.88693   -0.41655   0.19987   0.07974   0.88693   -0.41655   0.19987   102.24915
453   0.07972   0.88696   -0.41633   0.20023   0.07972   0.88696   -0.41633   0.20023   102.27356
454   0.07987   0.88720   -0.41560   0.20066   0.07987   0.88720   -0.41560   0.20066   102.18811
455   0.07995   0.88662   -0.41685   0.20081   0.07995   0.88662   -0.41685   0.20081   102.15149
456   0.07965   0.88699   -0.41618   0.20081   0.07965   0.88699   -0.41618   0.20081   102.25220
457   0.07954   0.88693   -0.41643   0.20060   0.07954   0.88693   -0.41643   0.20060   102.26746
458   0.07985   0.88711   -0.41597   0.20023   0.07985   0.88711   -0.41597   0.20023   102.16675
459   0.07982   0.88684   -0.41655   0.20069   0.07982   0.88684   -0.41655   0.20069   102.20032
460   0.07954   0.88726   -0.41588   0.19996   0.07954   0.88726   -0.41588   0.19996   102.26746
461   0.07952   0.88672   -0.41688   0.20038   0.07952   0.88672   -0.41688   0.20038   102.24304
462   0.07978   0.88659   -0.41716   0.20048   0.07978   0.88659   -0.41716   0.20048   102.13318
463   0.07976   0.88696   -0.41621   0.20090   0.07976   0.88696   -0.41621   0.20090   102.16675
464   0.07961   0.88714   -0.41609   0.20020   0.07961   0.88714   -0.41609   0.20020   102.27661
465   0.07968   0.88705   -0.41621   0.20054   0.07968   0.88705   -0.41621   0.20054   102.15759
466   0.07978   0.88693   -0.41612   0.20139   0.07978   0.88693   -0.41612   0.20139   102.09961
467   0.07976   0.88672   -0.41719   0.19977   0.07976   0.88672   -0.41719   0.19977   102.19116
468   0.07968   0.88687   -0.41633   0.20090   0.07968   0.88687   -0.41633   0.20090   102.23999
469   0.07977   0.88681   -0.41603   0.20136   0.07977   0.88681   -0.41603   0.20136   102.17896
470   0.07978   0.88714   -0.41588   0.20051   0.07978   0.88714   -0.41588   0.20051   102.15454
471   0.07975   0.88733   -0.41594   0.19974   0.07975   0.88733   -0.41594   0.19974   102.23694
472   0.07972   0.88730   -0.41566   0.20038   0.07972   0.88730   -0.41566   0.20038   102.21558
473   0.07972   0.88717   -0.41566   0.20084   0.07972   0.88717   -0.41566   0.20084   102.19116
474   0.07965   0.88723   -0.41646   0.19919   0.07965   0.88723   -0.41646   0.19919   102.16980
475   0.07968   0.88699   -0.41639   0.20002   0.07968   0.88699   -0.41639   0.20002   102.24915
476   0.07971   0.88693   -0.41609   0.20109   0.07971   0.88693   -0.41609   0.20109   102.19116
477   0.07975   0.88693   -0.41682   0.19993   0.07975   0.88693   -0.41682   0.19993   102.14539
478   0.07970   0.88702   -0.41615   0.20087   0.07970   0.88702   -0.41615   0.20087   102.20337
479   0.07970   0.88705   -0.41575   0.20118   0.07970   0.88705   -0.41575   0.20118   102.23999
480   0.07979   0.88678   -0.41676   0.20066   0.07979   0.88678   -0.41676   0.20066   102.14539
481   0.07978   0.88690   -0.41667   0.19993   0.07978   0.88690   -0.41667   0.19993   102.15759
482   0.07971   0.88763   -0.41499   0.20038   0.07971   0.88763   -0.41499   0.20038   102.21558
483   0.07970   0.88748   -0.41545   0.20023   0.07970   0.88748   -0.41545   0.20023   102.24915
484   0.07979   0.88684   -0.41636   0.20106   0.07979   0.88684   -0.41636   0.20106   102.12097
485   0.07975   0.88665   -0.41688   0.20081   0.07975   0.88665   -0.41688   0.20081   102.17896
486   0.07967   0.88730   -0.41572   0.20020   0.07967   0.88730   -0.41572   0.20020   102.25220
487   0.07970   0.88730   -0.41594   0.19996   0.07970   0.88730   -0.41594   0.19996   102.16980
488   0.07967   0.88708   -0.41621   0.20060   0.07967   0.88708   -0.41621   0.20060   102.15759
489   0.07968   0.88748   -0.41517   0.20057   0.07968   0.88748   -0.41517   0.20057   102.21558
490   0.07960   0.88733   -0.41627   0.19910   0.07960   0.88733   -0.41627   0.19910   102.28882
491   0.07976   0.88757   -0.41450   0.20161   0.07976   0.88757   -0.41450   0.20161   102.15759
492   0.07973   0.88739   -0.41545   0.20038   0.07973   0.88739   -0.41545   0.20038   102.19116
493   0.07968   0.88769   -0.41514   0.19971   0.07968   0.88769   -0.41514   0.19971   102.21558
494   0.07968   0.88675   -0.41691   0.20060   0.07968   0.88675   -0.41691   0.20060   102.26135
495   0.07978   0.88711   -0.41636   0.20020   0.07978   0.88711   -0.41636   0.20020   102.16675
496   0.07980   0.88693   -0.41603   0.20115   0.07980   0.88693   -0.41603   0.20115   102.14539
497   0.07970   0.88730   -0.41548   0.20057   0.07970   0.88730   -0.41548   0.20057   102.26135
498   0.07976   0.88720   -0.41585   0.20020   0.07976   0.88720   -0.41585   0.20020   102.26135
499   0.07979   0.88705   -0.41591   0.20133   0.07979   0.88705   -0.41591   0.20133   102.12097
500   0.07975   0.88723   -0.41585   0.20048   0.07975   0.88723   -0.41585   0.20048   102.12097
501   0.07964   0.88714   -0.41594   0.20020   0.07964   0.88714   -0.41594   0.20020   102.23999
502   0.07966   0.88708   -0.41603   0.20078   0.07966   0.88708   -0.41603   0.20078   102.19421
503   0.07973   0.88751   -0.41548   0.20011   0.07973   0.88751   -0.41548   0.20011   102.17896
504   0.07971   0.88748   -0.41539   0.20023   0.07971   0.88748   -0.41539   0.20023   102.18201
505   0.07971   0.88699   -0.41630   0.20026   0.07971   0.88699   -0.41630   0.20026   102.26135
506   0.07978   0.88708   -0.41572   0.20121   0.07978   0.88708   -0.41572   0.20121   102.15454
507   0.07975   0.88714   -0.41566   0.20127   0.07975   0.88714   -0.41566   0.20127   102.15759
508   0.07972   0.88760   -0.41496   0.20063   0.07972   0.88760   -0.41496   0.20063   102.23694
509   0.07975   0.88693   -0.41603   0.20127   0.07975   0.88693   -0.41603   0.20127   102.21558
510   0.07980   0.88723   -0.41554   0.20075   0.07980   0.88723   -0.41554   0.20075   102.16675
511   0.07978   0.88781   -0.41496   0.19938   0.07978   0.88781   -0.41496   0.19938   102.17896
512   0.07977   0.88784   -0.41469   0.19971   0.07977   0.88784   -0.41469   0.19971   102.22473
513   0.07977   0.88702   -0.41652   0.19987   0.07977   0.88702   -0.41652   0.19987   102.17896
514   0.07972   0.88745   -0.41539   0.20051   0.07972   0.88745   -0.41539   0.20051   102.16980
515   0.07961   0.88739   -0.41551   0.20023   0.07961   0.88739   -0.41551   0.20023   102.23999
516   0.07966   0.88733   -0.41536   0.20106   0.07966   0.88733   -0.41536   0.20106   102.21558
517   0.07975   0.88690   -0.41612   0.20130   0.07975   0.88690   -0.41612   0.20130   102.15759
518   0.07972   0.88708   -0.41597   0.20099   0.07972   0.88708   -0.41597   0.20099   102.14539
519   0.07971   0.88739   -0.41539   0.20072   0.07971   0.88739   -0.41539   0.20072   102.23694
520   0.07983   0.88754   -0.41560   0.19938   0.07983   0.88754   -0.41560   0.19938   102.23389
521   0.07987   0.88717   -0.41588   0.20069   0.07987   0.88717   -0.41588   0.20069   102.11792
522   0.07973   0.88696   -0.41612   0.20042   0.07973   0.88696   -0.41612   0.20042   102.17896
523   0.07973   0.88778   -0.41453   0.20081   0.07973   0.88778   -0.41453   0.20081   102.26135
524   0.07981   0.88650   -0.41765   0.19959   0.07981   0.88650   -0.41765   0.19959   102.21252
525   0.07982   0.88708   -0.41624   0.20035   0.07982   0.88708   -0.41624   0.20035   102.12097
526   0.07971   0.88754   -0.41536   0.20029   0.07971   0.88754   -0.41536   0.20029   102.23694
527   0.07966   0.88736   -0.41585   0.19962   0.07966   0.88736   -0.41585   0.19962   102.27356
528   0.07970   0.88714   -0.41597   0.20020   0.07970   0.88714   -0.41597   0.20020   102.15759
529   0.07968   0.88766   -0.41475   0.20035   0.07968   0.88766   -0.41475   0.20035   102.15759
530   0.07969   0.88705   -0.41646   0.19996   0.07969   0.88705   -0.41646   0.19996   102.23999
531   0.07962   0.88736   -0.41566   0.20017   0.07962   0.88736   -0.41566   0.20017   102.28577
532   0.07977   0.88726   -0.41578   0.20060   0.07977   0.88726   -0.41578   0.20060   102.11182
533   0.07975   0.88711   -0.41554   0.20109   0.07975   0.88711   -0.41554   0.20109   102.17896
534   0.07969   0.88723   -0.41594   0.20026   0.07969   0.88723   -0.41594   0.20026   102.22778
535   0.07970   0.88748   -0.41499   0.20090   0.07970   0.88748   -0.41499   0.20090   102.21558
536   0.07978   0.88742   -0.41533   0.20072   0.07978   0.88742   -0.41533   0.20072   102.15454
537   0.07979   0.88745   -0.41551   0.19996   0.07979   0.88745   -0.41551   0.19996   102.16675
538   0.07965   0.88736   -0.41566   0.20045   0.07965   0.88736   -0.41566   0.20045   102.25220
539   0.07949   0.88723   -0.41542   0.20112   0.07949   0.88723   -0.41542   0.20112   102.16370
540   0.07972   0.88748   -0.41560   0.19996   0.07972   0.88748   -0.41560   0.19996   102.11182
541   0.07982   0.88690   -0.41688   0.19977   0.07982   0.88690   -0.41688   0.19977   102.17896
542   0.07968   0.88763   -0.41539   0.19956   0.07968   0.88763   -0.41539   0.19956   102.22778
543   0.07959   0.88668   -0.41676   0.20084   0.07959   0.88668   -0.41676   0.20084   102.14844
544   0.07966   0.88708   -0.41676   0.19932   0.07966   0.88708   -0.41676   0.19932   102.16980
545   0.07966   0.88717   -0.41591   0.20008   0.07966   0.88717   -0.41591   0.20008   102.23999
546   0.07971   0.88723   -0.41615   0.19962   0.07971   0.88723   -0.41615   0.19962   102.20337
547   0.07976   0.88659   -0.41749   0.20008   0.07976   0.88659   -0.41749   0.20008   102.14539
548   0.07968   0.88723   -0.41560   0.20096   0.07968   0.88723   -0.41560   0.20096   102.20337
549   0.07969   0.88717   -0.41581   0.20051   0.07969   0.88717   -0.41581   0.20051   102.24915
550   0.07981   0.88757   -0.41536   0.19987   0.07981   0.88757   -0.41536   0.19987   102.15454
551   0.07978   0.88702   -0.41581   0.20084   0.07978   0.88702   -0.41581   0.20084   102.15454
552   0.07968   0.88696   -0.41676   0.19959   0.07968   0.88696   -0.41676   0.19959   102.26135
553   0.07972   0.88723   -0.41591   0.19999   0.07972   0.88723   -0.41591   0.19999   102.23694
554   0.07984   0.88702   -0.41575   0.20106   0.07984   0.88702   -0.41575   0.20106   102.15454
555   0.07983   0.88736   -0.41575   0.20002   0.07983   0.88736   -0.41575   0.20002   102.14233
556   0.07966   0.88720   -0.41618   0.19971   0.07966   0.88720   -0.41618   0.19971   102.23999
557   0.07970   0.88757   -0.41557   0.19935   0.07970   0.88757   -0.41557   0.19935   102.24915
558   0.07978   0.88711   -0.41609   0.20026   0.07978   0.88711   -0.41609   0.20026   102.12097
559   0.07978   0.88696   -0.41639   0.20020   0.07978   0.88696   -0.41639   0.20020   102.16675
560   0.07978   0.88696   -0.41630   0.20042   0.07978   0.88696   -0.41630   0.20042   102.22473
561   0.07975   0.88687   -0.41664   0.20038   0.07975   0.88687   -0.41664   0.20038   102.19116
562   0.07983   0.88748   -0.41563   0.19996   0.07983   0.88748   -0.41563   0.19996   102.12097
563   0.07979   0.88693   -0.41670   0.19993   0.07979   0.88693   -0.41670   0.19993   102.19116
564   0.07977   0.88723   -0.41581   0.20051   0.07977   0.88723   -0.41581   0.20051   102.22473
565   0.07978   0.88705   -0.41627   0.19987   0.07978   0.88705   -0.41627   0.19987   102.20337
566   0.07985   0.88754   -0.41520   0.19996   0.07985   0.88754   -0.41520   0.19996   102.14233
567   0.07978   0.88739   -0.41609   0.19932   0.07978   0.88739   -0.41609   0.19932   102.20337
568   0.07970   0.88714   -0.41633   0.19956   0.07970   0.88714   -0.41633   0.19956   102.26135
569   0.07974   0.88723   -0.41578   0.20042   0.07974   0.88723   -0.41578   0.20042   102.16980
570   0.07971   0.88675   -0.41743   0.19965   0.07971   0.88675   -0.41743   0.19965   102.14539
571   0.07972   0.88736   -0.41545   0.20060   0.07972   0.88736   -0.41545   0.20060   102.21558
572   0.07966   0.88662   -0.41734   0.19987   0.07966   0.88662   -0.41734   0.19987   102.26135
573   0.07973   0.88702   -0.41603   0.20072   0.07973   0.88702   -0.41603   0.20072   102.16980
574   0.07975   0.88748   -0.41551   0.20005   0.07975   0.88748   -0.41551   0.20005   102.16980
575   0.07973   0.88699   -0.41636   0.20023   0.07973   0.88699   -0.41636   0.20023   102.21558
576   0.07975   0.88690   -0.41679   0.19996   0.07975   0.88690   -0.41679   0.19996   102.19116
577   0.07979   0.88736   -0.41563   0.19999   0.07979   0.88736   -0.41563   0.19999   102.14539
578   0.07977   0.88717   -0.41630   0.19959   0.07977   0.88717   -0.41630   0.19959   102.20337
579   0.07975   0.88681   -0.41700   0.19971   0.07975   0.88681   -0.41700   0.19971   102.26135
580   0.07983   0.88690   -0.41661   0.20014   0.07983   0.88690   -0.41661   0.20014   102.15454
581   0.07974   0.88662   -0.41710   0.20075   0.07974   0.88662   -0.41710   0.20075   102.19116
582   0.07970   0.88702   -0.41612   0.20045   0.07970   0.88702   -0.41612   0.20045   102.24915
583   0.07969   0.88733   -0.41569   0.20014   0.07969   0.88733   -0.41569   0.20014   102.21558
584   0.07974   0.88705   -0.41551   0.20130   0.07974   0.88705   -0.41551   0.20130   102.14539
585   0.07972   0.88711   -0.41594   0.20051   0.07972   0.88711   -0.41594   0.20051   102.18201
586   0.07965   0.88696   -0.41643   0.20038   0.07965   0.88696   -0.41643   0.20038   102.26440
587   0.07974   0.88711   -0.41554   0.20096   0.07974   0.88711   -0.41554   0.20096   102.19116
588   0.07982   0.88705   -0.41630   0.20008   0.07982   0.88705   -0.41630   0.20008   102.10876
589   0.07974   0.88763   -0.41554   0.19962   0.07974   0.88763   -0.41554   0.19962   102.16980
590   0.07972   0.88699   -0.41682   0.19892   0.07972   0.88699   -0.41682   0.19892   102.28271
591   0.07979   0.88675   -0.41673   0.20051   0.07979   0.88675   -0.41673   0.20051   102.19116
592   0.07983   0.88714   -0.41649   0.19974   0.07983   0.88714   -0.41649   0.19974   102.14233
593   0.07974   0.88757   -0.41585   0.19886   0.07974   0.88757   -0.41585   0.19886   102.26135
594   0.07972   0.88699   -0.41646   0.19980   0.07972   0.88699   -0.41646   0.19980   102.27356
595   0.07980   0.88665   -0.41707   0.20042   0.07980   0.88665   -0.41707   0.20042   102.14539
596   0.07978   0.88681   -0.41694   0.20005   0.07978   0.88681   -0.41694   0.20005   102.14539
597   0.07963   0.88656   -0.41713   0.20051   0.07963   0.88656   -0.41713   0.20051   102.22778
598   0.07966   0.88693   -0.41664   0.19987   0.07966   0.88693   -0.41664   0.19987   102.23999
599   0.07977   0.88684   -0.41676   0.19993   0.07977   0.88684   -0.41676   0.19993   102.13318
600   0.07973   0.88665   -0.41749   0.19950   0.07973   0.88665   -0.41749   0.19950   102.17896
601   0.07971   0.88647   -0.41725   0.20090   0.07971   0.88647   -0.41725   0.20090   102.22778
602   0.07972   0.88617   -0.41792   0.20060   0.07972   0.88617   -0.41792   0.20060   102.22778
603   0.07978   0.88687   -0.41682   0.19977   0.07978   0.88687   -0.41682   0.19977   102.16675
604   0.07976   0.88656   -0.41786   0.19950   0.07976   0.88656   -0.41786   0.19950   102.20337
605   0.07977   0.88650   -0.41752   0.20011   0.07977   0.88650   -0.41752   0.20011   102.21252
606   0.07980   0.88607   -0.41838   0.19996   0.07980   0.88607   -0.41838   0.19996   102.17896
607   0.07981   0.88647   -0.41752   0.20002   0.07981   0.88647   -0.41752   0.20002   102.21252
608   0.07979   0.88720   -0.41597   0.19996   0.07979   0.88720   -0.41597   0.19996   102.16675
609   0.07974   0.88733   -0.41566   0.20032   0.07974   0.88733   -0.41566   0.20032   102.17896
610   0.07975   0.88665   -0.41713   0.20014   0.07975   0.88665   -0.41713   0.20014   102.15759
611   0.07967   0.88650   -0.41780   0.19953   0.07967   0.88650   -0.41780   0.19953   102.21558
612   0.07972   0.88675   -0.41679   0.20045   0.07972   0.88675   -0.41679   0.20045   102.21558
613   0.07973   0.88668   -0.41685   0.20063   0.07973   0.88668   -0.41685   0.20063   102.19116
614   0.07974   0.88653   -0.41719   0.20087   0.07974   0.88653   -0.41719   0.20087   102.20337
615   0.07971   0.88681   -0.41688   0.20008   0.07971   0.88681   -0.41688   0.20008   102.24915
616   0.07969   0.88681   -0.41691   0.19974   0.07969   0.88681   -0.41691   0.19974   102.24915
617   0.07984   0.88708   -0.41679   0.19916   0.07984   0.88708   -0.41679   0.19916   102.13013
618   0.07976   0.88711   -0.41563   0.20130   0.07976   0.88711   -0.41563   0.20130   102.19116
619   0.07959   0.88684   -0.41765   0.19855   0.07959   0.88684   -0.41765   0.19855   102.28882
620   0.07962   0.88668   -0.41737   0.19968   0.07962   0.88668   -0.41737   0.19968   102.21863
621   0.07987   0.88699   -0.41667   0.19971   0.07987   0.88699   -0.41667   0.19971   102.10876
622   0.07986   0.88668   -0.41740   0.19941   0.07986   0.88668   -0.41740   0.19941   102.20032
623   0.07970   0.88635   -0.41768   0.20023   0.07970   0.88635   -0.41768   0.20023   102.29492
624   0.07967   0.88650   -0.41768   0.20020   0.07967   0.88650   -0.41768   0.20020   102.15759
625   0.07971   0.88696   -0.41597   0.20145   0.07971   0.88696   -0.41597   0.20145   102.13623
626   0.07976   0.88690   -0.41682   0.19932   0.07976   0.88690   -0.41682   0.19932   102.20337
627   0.07970   0.88711   -0.41636   0.19968   0.07970   0.88711   -0.41636   0.19968   102.28577
628   0.07976   0.88665   -0.41725   0.20008   0.07976   0.88665   -0.41725   0.20008   102.17896
629   0.07977   0.88696   -0.41627   0.20048   0.07977   0.88696   -0.41627   0.20048   102.14539
630   0.07977   0.88641   -0.41798   0.19959   0.07977   0.88641   -0.41798   0.19959   102.22473
631   0.07973   0.88687   -0.41694   0.19993   0.07973   0.88687   -0.41694   0.19993   102.23694
632   0.07979   0.88705   -0.41609   0.20063   0.07979   0.88705   -0.41609   0.20063   102.15454
633   0.07984   0.88647   -0.41737   0.20051   0.07984   0.88647   -0.41737   0.20051   102.15454
634   0.07974   0.88672   -0.41676   0.20048   0.07974   0.88672   -0.41676   0.20048   102.23694
635   0.07978   0.88641   -0.41725   0.20112   0.07978   0.88641   -0.41725   0.20112   102.20337
636   0.07980   0.88620   -0.41783   0.20069   0.07980   0.88620   -0.41783   0.20069   102.16675
637   0.07974   0.88672   -0.41685   0.20048   0.07974   0.88672   -0.41685   0.20048   102.17896
638   0.07966   0.88708   -0.41630   0.20042   0.07966   0.88708   -0.41630   0.20042   102.20642
639   0.07986   0.88592   -0.41865   0.19987   0.07986   0.88592   -0.41865   0.19987   102.16675
640   0.07978   0.88656   -0.41786   0.19910   0.07978   0.88656   -0.41786   0.19910   102.19116
641   0.07957   0.88656   -0.41758   0.19947   0.07957   0.88656   -0.41758   0.19947   102.20642
642   0.07972   0.88638   -0.41749   0.20057   0.07972   0.88638   -0.41749   0.20057   102.24915
643   0.07986   0.88659   -0.41679   0.20133   0.07986   0.88659   -0.41679   0.20133   102.15454
644   0.07984   0.88659   -0.41752   0.19971   0.07984   0.88659   -0.41752   0.19971   102.20032
645   0.07973   0.88644   -0.41758   0.20042   0.07973   0.88644   -0.41758   0.20042   102.24915
646   0.07978   0.88687   -0.41722   0.19962   0.07978   0.88687   -0.41722   0.19962   102.14539
647   0.07983   0.88568   -0.41871   0.20109   0.07983   0.88568   -0.41871   0.20109   102.16675
648   0.07978   0.88641   -0.41810   0.19947   0.07978   0.88641   -0.41810   0.19947   102.24915
649   0.07974   0.88641   -0.41740   0.20051   0.07974   0.88641   -0.41740   0.20051   102.27051
650   0.07978   0.88614   -0.41832   0.19993   0.07978   0.88614   -0.41832   0.19993   102.16675
651   0.07975   0.88708   -0.41615   0.20054   0.07975   0.88708   -0.41615   0.20054   102.13318
652   0.07961   0.88693   -0.41682   0.19968   0.07961   0.88693   -0.41682   0.19968   102.28577
653   0.07972   0.88656   -0.41765   0.19953   0.07972   0.88656   -0.41765   0.19953   102.27356
654   0.07976   0.88617   -0.41838   0.19959   0.07976   0.88617   -0.41838   0.19959   102.13318
655   0.07982   0.88617   -0.41798   0.20090   0.07982   0.88617   -0.41798   0.20090   102.20032
656   0.07976   0.88650   -0.41762   0.20005   0.07976   0.88650   -0.41762   0.20005   102.26135
657   0.07953   0.88629   -0.41789   0.20045   0.07953   0.88629   -0.41789   0.20045   102.20947
658   0.07970   0.88620   -0.41774   0.20090   0.07970   0.88620   -0.41774   0.20090   102.12402
659   0.07986   0.88653   -0.41765   0.19941   0.07986   0.88653   -0.41765   0.19941   102.18811
660   0.07972   0.88678   -0.41762   0.19858   0.07972   0.88678   -0.41762   0.19858   102.26135
661   0.07964   0.88675   -0.41694   0.20017   0.07964   0.88675   -0.41694   0.20017   102.20642
662   0.07978   0.88638   -0.41719   0.20112   0.07978   0.88638   -0.41719   0.20112   102.14539
663   0.07980   0.88668   -0.41731   0.19987   0.07980   0.88668   -0.41731   0.19987   102.19116
664   0.07968   0.88626   -0.41783   0.20048   0.07968   0.88626   -0.41783   0.20048   102.26135
665   0.07967   0.88641   -0.41780   0.20023   0.07967   0.88641   -0.41780   0.20023   102.18201
666   0.07967   0.88629   -0.41774   0.20051   0.07967   0.88629   -0.41774   0.20051   102.19421
667   0.07972   0.88623   -0.41792   0.20026   0.07972   0.88623   -0.41792   0.20026   102.21558
668   0.07966   0.88610   -0.41835   0.20038   0.07966   0.88610   -0.41835   0.20038   102.25220
669   0.07973   0.88604   -0.41862   0.19993   0.07973   0.88604   -0.41862   0.19993   102.19116
670   0.07974   0.88635   -0.41755   0.20054   0.07974   0.88635   -0.41755   0.20054   102.20337
671   0.07973   0.88626   -0.41801   0.20002   0.07973   0.88626   -0.41801   0.20002   102.22778
672   0.07975   0.88668   -0.41697   0.20078   0.07975   0.88668   -0.41697   0.20078   102.21558
673   0.07977   0.88629   -0.41762   0.20054   0.07977   0.88629   -0.41762   0.20054   102.20337
674   0.07977   0.88623   -0.41856   0.19886   0.07977   0.88623   -0.41856   0.19886   102.22473
675   0.07972   0.88641   -0.41746   0.20032   0.07972   0.88641   -0.41746   0.20032   102.27356
676   0.07979   0.88623   -0.41804   0.20035   0.07979   0.88623   -0.41804   0.20035   102.15454
677   0.07977   0.88604   -0.41786   0.20112   0.07977   0.88604   -0.41786   0.20112   102.21252
678   0.07970   0.88638   -0.41789   0.20020   0.07970   0.88638   -0.41789   0.20020   102.22778
679   0.07968   0.88629   -0.41804   0.20005   0.07968   0.88629   -0.41804   0.20005   102.20337
680   0.07972   0.88604   -0.41832   0.20008   0.07972   0.88604   -0.41832   0.20008   102.18201
681   0.07967   0.88656   -0.41728   0.20005   0.07967   0.88656   -0.41728   0.20005   102.19421
682   0.07964   0.88644   -0.41789   0.19974   0.07964   0.88644   -0.41789   0.19974   102.26440
683   0.07971   0.88638   -0.41752   0.20084   0.07971   0.88638   -0.41752   0.20084   102.21558
684   0.07979   0.88665   -0.41691   0.20051   0.07979   0.88665   -0.41691   0.20051   102.14539
685   0.07974   0.88604   -0.41856   0.19968   0.07974   0.88604   -0.41856   0.19968   102.24915
686   0.07968   0.88620   -0.41823   0.19984   0.07968   0.88620   -0.41823   0.19984   102.29797
687   0.07979   0.88638   -0.41734   0.20090   0.07979   0.88638   -0.41734   0.20090   102.17896
688   0.07979   0.88601   -0.41841   0.20020   0.07979   0.88601   -0.41841   0.20020   102.16675
689   0.07974   0.88662   -0.41722   0.20032   0.07974   0.88662   -0.41722   0.20032   102.23694
690   0.07971   0.88623   -0.41813   0.20029   0.07971   0.88623   -0.41813   0.20029   102.29492
691   0.07981   0.88632   -0.41774   0.20042   0.07981   0.88632   -0.41774   0.20042   102.14233
692   0.07976   0.88662   -0.41731   0.20020   0.07976   0.88662   -0.41731   0.20020   102.15759
693   0.07960   0.88675   -0.41765   0.19889   0.07960   0.88675   -0.41765   0.19889   102.25220
694   0.07966   0.88620   -0.41774   0.20072   0.07966   0.88620   -0.41774   0.20072   102.26135
695   0.07977   0.88623   -0.41792   0.20063   0.07977   0.88623   -0.41792   0.20063   102.14539
696   0.07975   0.88638   -0.41774   0.19993   0.07975   0.88638   -0.41774   0.19993   102.21558
697   0.07968   0.88647   -0.41762   0.19987   0.07968   0.88647   -0.41762   0.19987   102.27356
698   0.07971   0.88614   -0.41783   0.20069   0.07971   0.88614   -0.41783   0.20069   102.21558
699   0.07978   0.88662   -0.41673   0.20127   0.07978   0.88662   -0.41673   0.20127   102.13318
700   0.07978   0.88644   -0.41762   0.20002   0.07978   0.88644   -0.41762   0.20002   102.20337
701   0.07973   0.88638   -0.41731   0.20084   0.07973   0.88638   -0.41731   0.20084   102.24915
702   0.07978   0.88647   -0.41752   0.20054   0.07978   0.88647   -0.41752   0.20054   102.19116
703   0.07980   0.88604   -0.41868   0.19968   0.07980   0.88604   -0.41868   0.19968   102.21252
704   0.07978   0.88565   -0.41942   0.20008   0.07978   0.88565   -0.41942   0.20008   102.23694
705   0.07972   0.88614   -0.41829   0.20002   0.07972   0.88614   -0.41829   0.20002   102.23694
706   0.07971   0.88568   -0.41884   0.20142   0.07971   0.88568   -0.41884   0.20142   102.18201
707   0.07966   0.88638   -0.41768   0.20042   0.07966   0.88638   -0.41768   0.20042   102.16980
708   0.07968   0.88626   -0.41789   0.20029   0.07968   0.88626   -0.41789   0.20029   102.23999
709   0.07968   0.88577   -0.41844   0.20093   0.07968   0.88577   -0.41844   0.20093   102.19421
710   0.07974   0.88610   -0.41801   0.20066   0.07974   0.88610   -0.41801   0.20066   102.20337
711   0.07972   0.88607   -0.41835   0.20017   0.07972   0.88607   -0.41835   0.20017   102.22778
712   0.07971   0.88638   -0.41765   0.20032   0.07971   0.88638   -0.41765   0.20032   102.27356
713   0.07977   0.88623   -0.41771   0.20081   0.07977   0.88623   -0.41771   0.20081   102.16675
714   0.07978   0.88638   -0.41789   0.19984   0.07978   0.88638   -0.41789   0.19984   102.17896
715   0.07973   0.88610   -0.41868   0.19971   0.07973   0.88610   -0.41868   0.19971   102.23694
716   0.07974   0.88617   -0.41816   0.20026   0.07974   0.88617   -0.41816   0.20026   102.28271
717   0.07981   0.88598   -0.41829   0.20063   0.07981   0.88598   -0.41829   0.20063   102.14233
718   0.07978   0.88632   -0.41777   0.20045   0.07978   0.88632   -0.41777   0.20045   102.15759
719   0.07968   0.88623   -0.41795   0.20063   0.07968   0.88623   -0.41795   0.20063   102.30713
720   0.07976   0.88632   -0.41789   0.20026   0.07976   0.88632   -0.41789   0.20026   102.21558
721   0.07979   0.88617   -0.41810   0.20051   0.07979   0.88617   -0.41810   0.20051   102.14539
722   0.07970   0.88614   -0.41816   0.20042   0.07970   0.88614   -0.41816   0.20042   102.21558
723   0.07963   0.88662   -0.41713   0.20011   0.07963   0.88662   -0.41713   0.20011   102.31018
724   0.07976   0.88626   -0.41765   0.20081   0.07976   0.88626   -0.41765   0.20081   102.19116
725   0.07979   0.88604   -0.41823   0.20099   0.07979   0.88604   -0.41823   0.20099   102.12097
726   0.07972   0.88610   -0.41813   0.20054   0.07972   0.88610   -0.41813   0.20054   102.22778
727   0.07966   0.88592   -0.41905   0.19977   0.07966   0.88592   -0.41905   0.19977   102.27356
728   0.07977   0.88620   -0.41789   0.20051   0.07977   0.88620   -0.41789   0.20051   102.19116
729   0.07985   0.88607   -0.41884   0.19956   0.07985   0.88607   -0.41884   0.19956   102.15454
730   0.07976   0.88647   -0.41762   0.20017   0.07976   0.88647   -0.41762   0.20017   102.17896
731   0.07972   0.88610   -0.41813   0.20023   0.07972   0.88610   -0.41813   0.20023   102.27356
732   0.07976   0.88638   -0.41807   0.19950   0.07976   0.88638   -0.41807   0.19950   102.19116
733   0.07978   0.88598   -0.41890   0.19938   0.07978   0.88598   -0.41890   0.19938   102.15759
734   0.07962   0.88617   -0.41786   0.20081   0.07962   0.88617   -0.41786   0.20081   102.23999
735   0.07966   0.88583   -0.41841   0.20133   0.07966   0.88583   -0.41841   0.20133   102.18201
736   0.07974   0.88574   -0.41859   0.20063   0.07974   0.88574   -0.41859   0.20063   102.19116
737   0.07972   0.88601   -0.41850   0.20005   0.07972   0.88601   -0.41850   0.20005   102.20337
738   0.07966   0.88638   -0.41798   0.19913   0.07966   0.88638   -0.41798   0.19913   102.25220
739   0.07947   0.88650   -0.41746   0.19977   0.07947   0.88650   -0.41746   0.19977   102.17590
740   0.07962   0.88638   -0.41792   0.20005   0.07962   0.88638   -0.41792   0.20005   102.17285
741   0.07981   0.88604   -0.41850   0.20026   0.07981   0.88604   -0.41850   0.20026   102.21252
742   0.07978   0.88610   -0.41774   0.20109   0.07978   0.88610   -0.41774   0.20109   102.22473
743   0.07974   0.88668   -0.41725   0.20017   0.07974   0.88668   -0.41725   0.20017   102.14539
744   0.07966   0.88601   -0.41838   0.20048   0.07966   0.88601   -0.41838   0.20048   102.19421
745   0.07966   0.88607   -0.41804   0.20048   0.07966   0.88607   -0.41804   0.20048   102.27356
746   0.07975   0.88647   -0.41728   0.20081   0.07975   0.88647   -0.41728   0.20081   102.19116
747   0.07975   0.88577   -0.41874   0.20048   0.07975   0.88577   -0.41874   0.20048   102.17896
748   0.07958   0.88610   -0.41893   0.19889   0.07958   0.88610   -0.41893   0.19889   102.21863
749   0.07963   0.88626   -0.41774   0.20051   0.07963   0.88626   -0.41774   0.20051   102.25220
750   0.07973   0.88623   -0.41774   0.20081   0.07973   0.88623   -0.41774   0.20081   102.16980
751   0.07976   0.88571   -0.41932   0.19980   0.07976   0.88571   -0.41932   0.19980   102.17896
752   0.07966   0.88629   -0.41807   0.19980   0.07966   0.88629   -0.41807   0.19980   102.25220
753   0.07969   0.88568   -0.41932   0.19956   0.07969   0.88568   -0.41932   0.19956   102.27356
754   0.07979   0.88577   -0.41859   0.20133   0.07979   0.88577   -0.41859   0.20133   102.19116
755   0.07986   0.88549   -0.41957   0.20014   0.07986   0.88549   -0.41957   0.20014   102.18811
756   0.07979   0.88589   -0.41932   0.19907   0.07979   0.88589   -0.41932   0.19907   102.27051
757   0.07971   0.88641   -0.41856   0.19834   0.07971   0.88641   -0.41856   0.19834   102.26135
758   0.07986   0.88644   -0.41789   0.19944   0.07986   0.88644   -0.41789   0.19944   102.16675
759   0.07981   0.88620   -0.41893   0.19868   0.07981   0.88620   -0.41893   0.19868   102.16675
760   0.07970   0.88629   -0.41939   0.19694   0.07970   0.88629   -0.41939   0.19694   102.29492
761   0.07967   0.88598   -0.41960   0.19822   0.07967   0.88598   -0.41960   0.19822   102.23999
762   0.07971   0.88583   -0.41911   0.19953   0.07971   0.88583   -0.41911   0.19953   102.18201
763   0.07975   0.88601   -0.41881   0.19974   0.07975   0.88601   -0.41881   0.19974   102.19116
764   0.07966   0.88601   -0.41844   0.20008   0.07966   0.88601   -0.41844   0.20008   102.29797
765   0.07975   0.88614   -0.41832   0.19993   0.07975   0.88614   -0.41832   0.19993   102.21558
766   0.07978   0.88607   -0.41804   0.20063   0.07978   0.88607   -0.41804   0.20063   102.16675
767   0.07977   0.88583   -0.41896   0.19980   0.07977   0.88583   -0.41896   0.19980   102.22473
768   0.07973   0.88653   -0.41749   0.20014   0.07973   0.88653   -0.41749   0.20014   102.23694
769   0.07980   0.88601   -0.41816   0.20109   0.07980   0.88601   -0.41816   0.20109   102.19116
770   0.07978   0.88635   -0.41768   0.20054   0.07978   0.88635   -0.41768   0.20054   102.20337
771   0.07975   0.88629   -0.41877   0.19901   0.07975   0.88629   -0.41877   0.19901   102.26135
772   0.07976   0.88632   -0.41795   0.19999   0.07976   0.88632   -0.41795   0.19999   102.20337
773   0.07976   0.88607   -0.41856   0.19977   0.07976   0.88607   -0.41856   0.19977   102.21558
774   0.07975   0.88629   -0.41832   0.19941   0.07975   0.88629   -0.41832   0.19941   102.22473
775   0.07961   0.88647   -0.41807   0.19883   0.07961   0.88647   -0.41807   0.19883   102.27661
776   0.07967   0.88617   -0.41768   0.20099   0.07967   0.88617   -0.41768   0.20099   102.19421
777   0.07972   0.88635   -0.41798   0.20002   0.07972   0.88635   -0.41798   0.20002   102.16980
778   0.07966   0.88571   -0.41884   0.20029   0.07966   0.88571   -0.41884   0.20029   102.25220
779   0.07971   0.88586   -0.41874   0.20029   0.07971   0.88586   -0.41874   0.20029   102.24915
780   0.07977   0.88586   -0.41795   0.20148   0.07977   0.88586   -0.41795   0.20148   102.14539
781   0.07976   0.88565   -0.41896   0.20075   0.07976   0.88565   -0.41896   0.20075   102.22473
782   0.07973   0.88644   -0.41777   0.19984   0.07973   0.88644   -0.41777   0.19984   102.23694
783   0.07975   0.88568   -0.41948   0.19935   0.07975   0.88568   -0.41948   0.19935   102.26135
784   0.07981   0.88617   -0.41777   0.20069   0.07981   0.88617   -0.41777   0.20069   102.14233
785   0.07979   0.88659   -0.41746   0.19990   0.07979   0.88659   -0.41746   0.19990   102.17896
786   0.07970   0.88586   -0.41871   0.20048   0.07970   0.88586   -0.41871   0.20048   102.28577
787   0.07974   0.88589   -0.41874   0.19987   0.07974   0.88589   -0.41874   0.19987   102.21558
788   0.07977   0.88580   -0.41908   0.19977   0.07977   0.88580   -0.41908   0.19977   102.14539
789   0.07966   0.88617   -0.41801   0.20081   0.07966   0.88617   -0.41801   0.20081   102.19421
790   0.07962   0.88626   -0.41804   0.19980   0.07962   0.88626   -0.41804   0.19980   102.29797
791   0.07968   0.88607   -0.41823   0.20045   0.07968   0.88607   -0.41823   0.20045   102.22778
792   0.07975   0.88580   -0.41874   0.20042   0.07975   0.88580   -0.41874   0.20042   102.16980
793   0.07970   0.88635   -0.41755   0.20029   0.07970   0.88635   -0.41755   0.20029   102.26135
794   0.07966   0.88589   -0.41893   0.19959   0.07966   0.88589   -0.41893   0.19959   102.31018
795   0.07975   0.88589   -0.41890   0.20045   0.07975   0.88589   -0.41890   0.20045   102.20337
796   0.07978   0.88623   -0.41844   0.19922   0.07978   0.88623   -0.41844   0.19922   102.14539
797   0.07971   0.88559   -0.41908   0.20051   0.07971   0.88559   -0.41908   0.20051   102.26135
798   0.07972   0.88623   -0.41798   0.20054   0.07972   0.88623   -0.41798   0.20054   102.27356
799   0.07981   0.88577   -0.41884   0.20054   0.07981   0.88577   -0.41884   0.20054   102.16675
800   0.07978   0.88592   -0.41871   0.19990   0.07978   0.88592   -0.41871   0.19990   102.17896
801   0.07969   0.88583   -0.41917   0.19980   0.07969   0.88583   -0.41917   0.19980   102.26135
802   0.07966   0.88598   -0.41853   0.20038   0.07966   0.88598   -0.41853   0.20038   102.23999
803   0.07969   0.88589   -0.41850   0.20042   0.07969   0.88589   -0.41850   0.20042   102.18201
804   0.07972   0.88629   -0.41835   0.19944   0.07972   0.88629   -0.41835   0.19944   102.22778
805   0.07966   0.88620   -0.41871   0.19910   0.07966   0.88620   -0.41871   0.19910   102.22778
806   0.07973   0.88601   -0.41835   0.20042   0.07973   0.88601   -0.41835   0.20042   102.17896
807   0.07973   0.88583   -0.41917   0.19990   0.07973   0.88583   -0.41917   0.19990   102.20337
808   0.07971   0.88607   -0.41871   0.19980   0.07971   0.88607   -0.41871   0.19980   102.23694
809   0.07972   0.88656   -0.41746   0.20035   0.07972   0.88656   -0.41746   0.20035   102.23694
810   0.07978   0.88617   -0.41865   0.19907   0.07978   0.88617   -0.41865   0.19907   102.15454
811   0.07977   0.88607   -0.41820   0.20042   0.07977   0.88607   -0.41820   0.20042   102.20337
812   0.07975   0.88620   -0.41868   0.19916   0.07975   0.88620   -0.41868   0.19916   102.24915
813   0.07976   0.88610   -0.41832   0.20020   0.07976   0.88610   -0.41832   0.20020   102.20337
814   0.07975   0.88604   -0.41862   0.19993   0.07975   0.88604   -0.41862   0.19993   102.16980
815   0.07969   0.88571   -0.41935   0.19971   0.07969   0.88571   -0.41935   0.19971   102.22778
816   0.07961   0.88647   -0.41771   0.19947   0.07961   0.88647   -0.41771   0.19947   102.27661
817   0.07969   0.88641   -0.41780   0.20008   0.07969   0.88641   -0.41780   0.20008   102.15759
818   0.07973   0.88607   -0.41847   0.19993   0.07973   0.88607   -0.41847   0.19993   102.16980
819   0.07949   0.88571   -0.41905   0.19990   0.07949   0.88571   -0.41905   0.19990   102.27966
820   0.07947   0.88577   -0.41935   0.19990   0.07947   0.88577   -0.41935   0.19990   102.25525
821   0.07976   0.88525   -0.41984   0.20051   0.07976   0.88525   -0.41984   0.20051   102.15759
822   0.07981   0.88553   -0.41942   0.20060   0.07981   0.88553   -0.41942   0.20060   102.17896
823   0.07968   0.88595   -0.41920   0.19941   0.07968   0.88595   -0.41920   0.19941   102.26135
824   0.07968   0.88610   -0.41841   0.19968   0.07968   0.88610   -0.41841   0.19968   102.24915
825   0.07980   0.88617   -0.41847   0.19977   0.07980   0.88617   -0.41847   0.19977   102.14539
826   0.07982   0.88580   -0.41929   0.19932   0.07982   0.88580   -0.41929   0.19932   102.20032
827   0.07977   0.88556   -0.41932   0.20023   0.07977   0.88556   -0.41932   0.20023   102.28271
828   0.07971   0.88574   -0.41908   0.19999   0.07971   0.88574   -0.41908   0.19999   102.27356
829   0.07978   0.88610   -0.41792   0.20072   0.07978   0.88610   -0.41792   0.20072   102.10876
830   0.07964   0.88614   -0.41844   0.20005   0.07964   0.88614   -0.41844   0.20005   102.20642
831   0.07964   0.88610   -0.41804   0.20042   0.07964   0.88610   -0.41804   0.20042   102.29797
832   0.07972   0.88629   -0.41838   0.19926   0.07972   0.88629   -0.41838   0.19926   102.20337
833   0.07976   0.88647   -0.41798   0.19965   0.07976   0.88647   -0.41798   0.19965   102.13318
834   0.07973   0.88562   -0.41957   0.19965   0.07973   0.88562   -0.41957   0.19965   102.22778
835   0.07970   0.88610   -0.41887   0.19968   0.07970   0.88610   -0.41887   0.19968   102.24915
836   0.07976   0.88601   -0.41844   0.20038   0.07976   0.88601   -0.41844   0.20038   102.17896
837   0.07977   0.88650   -0.41755   0.20014   0.07977   0.88650   -0.41755   0.20014   102.17896
838   0.07973   0.88598   -0.41853   0.19996   0.07973   0.88598   -0.41853   0.19996   102.30713
839   0.07987   0.88586   -0.41893   0.19980   0.07987   0.88586   -0.41893   0.19980   102.24609
840   0.07983   0.88595   -0.41841   0.20057   0.07983   0.88595   -0.41841   0.20057   102.17896
841   0.07965   0.88635   -0.41807   0.19929   0.07965   0.88635   -0.41807   0.19929   102.20642
842   0.07966   0.88574   -0.41877   0.20042   0.07966   0.88574   -0.41877   0.20042   102.26135
843   0.07976   0.88562   -0.41920   0.20045   0.07976   0.88562   -0.41920   0.20045   102.19116
844   0.07976   0.88604   -0.41859   0.20011   0.07976   0.88604   -0.41859   0.20011   102.17896
845   0.07970   0.88604   -0.41881   0.19944   0.07970   0.88604   -0.41881   0.19944   102.24915
846   0.07967   0.88623   -0.41820   0.19926   0.07967   0.88623   -0.41820   0.19926   102.20337
847   0.07976   0.88610   -0.41823   0.20011   0.07976   0.88610   -0.41823   0.20011   102.16675
848   0.07976   0.88513   -0.42021   0.20042   0.07976   0.88513   -0.42021   0.20042   102.22473
849   0.07973   0.88598   -0.41877   0.19999   0.07973   0.88598   -0.41877   0.19999   102.24915
850   0.07971   0.88607   -0.41826   0.20060   0.07971   0.88607   -0.41826   0.20060   102.19116
851   0.07977   0.88577   -0.41911   0.20011   0.07977   0.88577   -0.41911   0.20011   102.15759
852   0.07975   0.88632   -0.41807   0.19987   0.07975   0.88632   -0.41807   0.19987   102.21558
853   0.07970   0.88614   -0.41862   0.19922   0.07970   0.88614   -0.41862   0.19922   102.30713
854   0.07990   0.88553   -0.41984   0.19919   0.07990   0.88553   -0.41984   0.19919   102.18811
855   0.07993   0.88577   -0.41865   0.20069   0.07993   0.88577   -0.41865   0.20069   102.17590
856   0.07955   0.88632   -0.41813   0.19984   0.07955   0.88632   -0.41813   0.19984   102.25525
857   0.07937   0.88604   -0.41810   0.20096   0.07937   0.88604   -0.41810   0.20096   102.27051
858   0.07973   0.88568   -0.41917   0.20032   0.07973   0.88568   -0.41917   0.20032   102.20337
859   0.07980   0.88565   -0.41896   0.20078   0.07980   0.88565   -0.41896   0.20078   102.16675
860   0.07960   0.88614   -0.41862   0.19977   0.07960   0.88614   -0.41862   0.19977   102.23999
861   0.07956   0.88617   -0.41832   0.19950   0.07956   0.88617   -0.41832   0.19950   102.26440
862   0.07976   0.88580   -0.41832   0.20112   0.07976   0.88580   -0.41832   0.20112   102.17896
863   0.07980   0.88556   -0.41963   0.19968   0.07980   0.88556   -0.41963   0.19968   102.16675
864   0.07967   0.88601   -0.41905   0.19883   0.07967   0.88601   -0.41905   0.19883   102.25220
865   0.07967   0.88586   -0.41850   0.20057   0.07967   0.88586   -0.41850   0.20057   102.25220
866   0.07973   0.88601   -0.41813   0.20109   0.07973   0.88601   -0.41813   0.20109   102.17896
867   0.07979   0.88565   -0.41951   0.19956   0.07979   0.88565   -0.41951   0.19956   102.21252
868   0.07973   0.88626   -0.41868   0.19895   0.07973   0.88626   -0.41868   0.19895   102.26135
869   0.07970   0.88589   -0.41881   0.20026   0.07970   0.88589   -0.41881   0.20026   102.19116
870   0.07971   0.88592   -0.41856   0.20026   0.07971   0.88592   -0.41856   0.20026   102.21558
871   0.07964   0.88607   -0.41868   0.19980   0.07964   0.88607   -0.41868   0.19980   102.22778
872   0.07966   0.88583   -0.41905   0.19980   0.07966   0.88583   -0.41905   0.19980   102.25220
873   0.07969   0.88556   -0.41935   0.20032   0.07969   0.88556   -0.41935   0.20032   102.20337
874   0.07969   0.88565   -0.41939   0.19996   0.07969   0.88565   -0.41939   0.19996   102.24915
875   0.07969   0.88531   -0.42012   0.19987   0.07969   0.88531   -0.42012   0.19987   102.22778
876   0.07972   0.88546   -0.41987   0.19962   0.07972   0.88546   -0.41987   0.19962   102.26135
877   0.07975   0.88583   -0.41865   0.20026   0.07975   0.88583   -0.41865   0.20026   102.22473
878   0.07975   0.88577   -0.41920   0.19977   0.07975   0.88577   -0.41920   0.19977   102.21558
879   0.07977   0.88610   -0.41881   0.19919   0.07977   0.88610   -0.41881   0.19919   102.24915
880   0.07978   0.88574   -0.41868   0.20045   0.07978   0.88574   -0.41868   0.20045   102.22473
881   0.07982   0.88592   -0.41884   0.19977   0.07982   0.88592   -0.41884   0.19977   102.17896
882   0.07971   0.88580   -0.41899   0.19977   0.07971   0.88580   -0.41899   0.19977   102.27356
883   0.07969   0.88623   -0.41807   0.19987   0.07969   0.88623   -0.41807   0.19987   102.26135
884   0.07973   0.88607   -0.41832   0.20017   0.07973   0.88607   -0.41832   0.20017   102.15759
885   0.07968   0.88586   -0.41932   0.19880   0.07968   0.88586   -0.41932   0.19880   102.15759
886   0.07966   0.88632   -0.41792   0.20020   0.07966   0.88632   -0.41792   0.20020   102.27356
887   0.07968   0.88574   -0.41914   0.19993   0.07968   0.88574   -0.41914   0.19993   102.23999
888   0.07978   0.88592   -0.41832   0.20118   0.07978   0.88592   -0.41832   0.20118   102.15454
889   0.07976   0.88577   -0.41923   0.19999   0.07976   0.88577   -0.41923   0.19999   102.16675
890   0.07970   0.88601   -0.41859   0.19962   0.07970   0.88601   -0.41859   0.19962   102.27356
891   0.07974   0.88607   -0.41853   0.20014   0.07974   0.88607   -0.41853   0.20014   102.22473
892   0.07984   0.88632   -0.41780   0.20060   0.07984   0.88632   -0.41780   0.20060   102.07520
893   0.07979   0.88610   -0.41826   0.20011   0.07979   0.88610   -0.41826   0.20011   102.22473
894   0.07973   0.88610   -0.41810   0.20035   0.07973   0.88610   -0.41810   0.20035   102.29492
895   0.07979   0.88565   -0.41838   0.20179   0.07979   0.88565   -0.41838   0.20179   102.22473
896   0.07981   0.88598   -0.41841   0.20078   0.07981   0.88598   -0.41841   0.20078   102.14233
897   0.07972   0.88647   -0.41746   0.20063   0.07972   0.88647   -0.41746   0.20063   102.20337
898   0.07959   0.88650   -0.41700   0.20115   0.07959   0.88650   -0.41700   0.20115   102.24304
899   0.07970   0.88632   -0.41820   0.19962   0.07970   0.88632   -0.41820   0.19962   102.18201
900   0.07976   0.88662   -0.41768   0.19932   0.07976   0.88662   -0.41768   0.19932   102.16675
901   0.07967   0.88641   -0.41774   0.20011   0.07967   0.88641   -0.41774   0.20011   102.20337
902   0.07972   0.88620   -0.41804   0.20026   0.07972   0.88620   -0.41804   0.20026   102.26135
903   0.07973   0.88592   -0.41853   0.20023   0.07973   0.88592   -0.41853   0.20023   102.22778
904   0.07976   0.88595   -0.41853   0.20023   0.07976   0.88595   -0.41853   0.20023   102.19116
905   0.07973   0.88617   -0.41844   0.19971   0.07973   0.88617   -0.41844   0.19971   102.22778
906   0.07978   0.88620   -0.41838   0.20002   0.07978   0.88620   -0.41838   0.20002   102.16675
907   0.07978   0.88629   -0.41755   0.20075   0.07978   0.88629   -0.41755   0.20075   102.20032
908   0.07976   0.88629   -0.41780   0.20029   0.07976   0.88629   -0.41780   0.20029   102.20337
909   0.07978   0.88620   -0.41795   0.20042   0.07978   0.88620   -0.41795   0.20042   102.23694
910   0.07976   0.88641   -0.41755   0.20002   0.07976   0.88641   -0.41755   0.20002   102.16675
911   0.07973   0.88687   -0.41746   0.19846   0.07973   0.88687   -0.41746   0.19846   102.17896
912   0.07963   0.88644   -0.41798   0.19922   0.07963   0.88644   -0.41798   0.19922   102.22778
913   0.07971   0.88647   -0.41838   0.19868   0.07971   0.88647   -0.41838   0.19868   102.21558
914   0.07972   0.88653   -0.41713   0.20045   0.07972   0.88653   -0.41713   0.20045   102.16980
915   0.07969   0.88610   -0.41853   0.19993   0.07969   0.88610   -0.41853   0.19993   102.22778
916   0.07968   0.88647   -0.41762   0.19987   0.07968   0.88647   -0.41762   0.19987   102.27356
917   0.07974   0.88577   -0.41853   0.20090   0.07974   0.88577   -0.41853   0.20090   102.20337
918   0.07979   0.88586   -0.41893   0.20035   0.07979   0.88586   -0.41893   0.20035   102.15454
919   0.07976   0.88607   -0.41850   0.19971   0.07976   0.88607   -0.41850   0.19971   102.24915
920   0.07981   0.88623   -0.41789   0.20042   0.07981   0.88623   -0.41789   0.20042   102.25830
921   0.07984   0.88635   -0.41768   0.20042   0.07984   0.88635   -0.41768   0.20042   102.16675
922   0.07978   0.88659   -0.41752   0.19984   0.07978   0.88659   -0.41752   0.19984   102.13318
923   0.07972   0.88604   -0.41853   0.19990   0.07972   0.88604   -0.41853   0.19990   102.26135
924   0.07969   0.88610   -0.41856   0.19947   0.07969   0.88610   -0.41856   0.19947   102.24915
925   0.07976   0.88653   -0.41762   0.19968   0.07976   0.88653   -0.41762   0.19968   102.16675
926   0.07965   0.88641   -0.41768   0.20020   0.07965   0.88641   -0.41768   0.20020   102.16980
927   0.07962   0.88626   -0.41774   0.20078   0.07962   0.88626   -0.41774   0.20078   102.26440
928   0.07968   0.88653   -0.41752   0.19984   0.07968   0.88653   -0.41752   0.19984   102.18201
929   0.07974   0.88675   -0.41704   0.20008   0.07974   0.88675   -0.41704   0.20008   102.14539
930   0.07973   0.88693   -0.41697   0.19922   0.07973   0.88693   -0.41697   0.19922   102.20337
931   0.07964   0.88681   -0.41710   0.19993   0.07964   0.88681   -0.41710   0.19993   102.28577
932   0.07973   0.88675   -0.41749   0.19932   0.07973   0.88675   -0.41749   0.19932   102.20337
933   0.07978   0.88626   -0.41786   0.20075   0.07978   0.88626   -0.41786   0.20075   102.14539
934   0.07977   0.88681   -0.41737   0.19892   0.07977   0.88681   -0.41737   0.19892   102.23694
935   0.07971   0.88717   -0.41630   0.19990   0.07971   0.88717   -0.41630   0.19990   102.22778
936   0.07977   0.88595   -0.41865   0.19996   0.07977   0.88595   -0.41865   0.19996   102.22473
937   0.07978   0.88650   -0.41771   0.19993   0.07978   0.88650   -0.41771   0.19993   102.17896
938   0.07964   0.88678   -0.41704   0.19956   0.07964   0.88678   -0.41704   0.19956   102.23999
939   0.07935   0.88681   -0.41670   0.20023   0.07935   0.88681   -0.41670   0.20023   102.23694
940   0.07958   0.88687   -0.41691   0.20008   0.07958   0.88687   -0.41691   0.20008   102.18506
941   0.07976   0.88644   -0.41780   0.20014   0.07976   0.88644   -0.41780   0.20014   102.20337
942   0.07966   0.88681   -0.41713   0.19947   0.07966   0.88681   -0.41713   0.19947   102.28577
943   0.07962   0.88641   -0.41765   0.20029   0.07962   0.88641   -0.41765   0.20029   102.19421
944   0.07965   0.88702   -0.41612   0.20063   0.07965   0.88702   -0.41612   0.20063   102.18201
945   0.07970   0.88665   -0.41795   0.19855   0.07970   0.88665   -0.41795   0.19855   102.26135
946   0.07971   0.88678   -0.41679   0.20017   0.07971   0.88678   -0.41679   0.20017   102.22778
947   0.07972   0.88675   -0.41670   0.20066   0.07972   0.88675   -0.41670   0.20066   102.18201
948   0.07969   0.88644   -0.41755   0.20026   0.07969   0.88644   -0.41755   0.20026   102.19421
949   0.07970   0.88684   -0.41704   0.19984   0.07970   0.88684   -0.41704   0.19984   102.22778
950   0.07974   0.88705   -0.41679   0.19935   0.07974   0.88705   -0.41679   0.19935   102.22473
951   0.07978   0.88714   -0.41588   0.20087   0.07978   0.88714   -0.41588   0.20087   102.10876
952   0.07969   0.88641   -0.41771   0.19984   0.07969   0.88641   -0.41771   0.19984   102.22778
953   0.07958   0.88668   -0.41700   0.20017   0.07958   0.88668   -0.41700   0.20017   102.26440
954   0.07970   0.88699   -0.41606   0.20081   0.07970   0.88699   -0.41606   0.20081   102.18201
955   0.07983   0.88708   -0.41585   0.20093   0.07983   0.88708   -0.41585   0.20093   102.14233
956   0.07975   0.88726   -0.41588   0.19974   0.07975   0.88726   -0.41588   0.19974   102.22473
957   0.07964   0.88696   -0.41588   0.20142   0.07964   0.88696   -0.41588   0.20142   102.28577
958   0.07978   0.88672   -0.41661   0.20109   0.07978   0.88672   -0.41661   0.20109   102.16675
959   0.07984   0.88644   -0.41743   0.20051   0.07984   0.88644   -0.41743   0.20051   102.14233
960   0.07977   0.88708   -0.41673   0.19932   0.07977   0.88708   -0.41673   0.19932   102.20337
961   0.07975   0.88687   -0.41670   0.20008   0.07975   0.88687   -0.41670   0.20008   102.29492
962   0.07981   0.88684   -0.41670   0.20035   0.07981   0.88684   -0.41670   0.20035   102.13318
963   0.07979   0.88696   -0.41597   0.20142   0.07979   0.88696   -0.41597   0.20142   102.16675
964   0.07973   0.88696   -0.41664   0.19977   0.07973   0.88696   -0.41664   0.19977   102.28271
965   0.07968   0.88681   -0.41688   0.20035   0.07968   0.88681   -0.41688   0.20035   102.23999
966   0.07975   0.88696   -0.41630   0.20060   0.07975   0.88696   -0.41630   0.20060   102.12097
967   0.07968   0.88745   -0.41563   0.19962   0.07968   0.88745   -0.41563   0.19962   102.18201
968   0.07966   0.88711   -0.41627   0.20032   0.07966   0.88711   -0.41627   0.20032   102.22778
969   0.07968   0.88690   -0.41685   0.19996   0.07968   0.88690   -0.41685   0.19996   102.21558
970   0.07970   0.88647   -0.41749   0.20054   0.07970   0.88647   -0.41749   0.20054   102.19116
971   0.07974   0.88647   -0.41768   0.19944   0.07974   0.88647   -0.41768   0.19944   102.19116
972   0.07972   0.88638   -0.41749   0.20057   0.07972   0.88638   -0.41749   0.20057   102.24915
973   0.07975   0.88601   -0.41826   0.20029   0.07975   0.88601   -0.41826   0.20029   102.21558
974   0.07974   0.88702   -0.41652   0.19999   0.07974   0.88702   -0.41652   0.19999   102.16980
975   0.07975   0.88702   -0.41646   0.20005   0.07975   0.88702   -0.41646   0.20005   102.22473
976   0.07975   0.88681   -0.41652   0.20057   0.07975   0.88681   -0.41652   0.20057   102.20337
977   0.07979   0.88711   -0.41600   0.20066   0.07979   0.88711   -0.41600   0.20066   102.19116
978   0.07976   0.88717   -0.41600   0.20045   0.07976   0.88717   -0.41600   0.20045   102.17896
979   0.07967   0.88687   -0.41688   0.19999   0.07967   0.88687   -0.41688   0.19999   102.23999
980   0.07967   0.88641   -0.41713   0.20075   0.07967   0.88641   -0.41713   0.20075   102.15759
981   0.07969   0.88687   -0.41661   0.20051   0.07969   0.88687   -0.41661   0.20051   102.15759
982   0.07968   0.88632   -0.41820   0.19938   0.07968   0.88632   -0.41820   0.19938   102.21558
983   0.07968   0.88705   -0.41670   0.19965   0.07968   0.88705   -0.41670   0.19965   102.21558
984   0.07975   0.88687   -0.41655   0.20042   0.07975   0.88687   -0.41655   0.20042   102.15759
985   0.07975   0.88730   -0.41594   0.19993   0.07975   0.88730   -0.41594   0.19993   102.14539
986   0.07970   0.88708   -0.41646   0.19968   0.07970   0.88708   -0.41646   0.19968   102.22778
987   0.07973   0.88684   -0.41719   0.19907   0.07973   0.88684   -0.41719   0.19907   102.26135
988   0.07981   0.88696   -0.41676   0.19971   0.07981   0.88696   -0.41676   0.19971   102.13318
989   0.07978   0.88699   -0.41667   0.19993   0.07978   0.88699   -0.41667   0.19993   102.16675
990   0.07973   0.88696   -0.41679   0.19953   0.07973   0.88696   -0.41679   0.19953   102.29492
991   0.07973   0.88696   -0.41713   0.19932   0.07973   0.88696   -0.41713   0.19932   102.19116
992   0.07983   0.88675   -0.41734   0.19950   0.07983   0.88675   -0.41734   0.19950   102.09656
993   0.07973   0.88717   -0.41606   0.20002   0.07973   0.88717   -0.41606   0.20002   102.15759
994   0.07961   0.88675   -0.41725   0.19971   0.07961   0.88675   -0.41725   0.19971   102.26440
995   0.07968   0.88736   -0.41588   0.20005   0.07968   0.88736   -0.41588   0.20005   102.19421
996   0.07975   0.88659   -0.41682   0.20103   0.07975   0.88659   -0.41682   0.20103   102.13318
997   0.07970   0.88705   -0.41630   0.20035   0.07970   0.88705   -0.41630   0.20035   102.21558
998   0.07963   0.88662   -0.41676   0.20078   0.07963   0.88662   -0.41676   0.20078   102.31018
999   0.07976   0.88672   -0.41700   0.20011   0.07976   0.88672   -0.41700   0.20011   102.16675
1000   0.07979   0.88684   -0.41636   0.20090   0.07979   0.88684   -0.41636   0.20090   102.12097
1001   0.07971   0.88693   -0.41679   0.19993   0.07971   0.88693   -0.41679   0.19993   102.19116
1002   0.07976   0.88662   -0.41685   0.20084   0.07976   0.88662   -0.41685   0.20084   102.21558
1003   0.07977   0.88650   -0.41670   0.20145   0.07977   0.88650   -0.41670   0.20145   102.17896
1004   0.07978   0.88659   -0.41679   0.20084   0.07978   0.88659   -0.41679   0.20084   102.17896
1005   0.07975   0.88668   -0.41728   0.20017   0.07975   0.88668   -0.41728   0.20017   102.23694
1006   0.07973   0.88672   -0.41719   0.20008   0.07973   0.88672   -0.41719   0.20008   102.17896
1007   0.07973   0.88720   -0.41581   0.20032   0.07973   0.88720   -0.41581   0.20032   102.19116
1008   0.07966   0.88665   -0.41700   0.20035   0.07966   0.88665   -0.41700   0.20035   102.21558
1009   0.07969   0.88644   -0.41746   0.20014   0.07969   0.88644   -0.41746   0.20014   102.26135
1010   0.07971   0.88717   -0.41652   0.19932   0.07971   0.88717   -0.41652   0.19932   102.21558
1011   0.07971   0.88714   -0.41624   0.20014   0.07971   0.88714   -0.41624   0.20014   102.20337
1012   0.07969   0.88665   -0.41691   0.20063   0.07969   0.88665   -0.41691   0.20063   102.22778
1013   0.07972   0.88675   -0.41679   0.20060   0.07972   0.88675   -0.41679   0.20060   102.21558
1014   0.07981   0.88678   -0.41652   0.20103   0.07981   0.88678   -0.41652   0.20103   102.16675
1015   0.07977   0.88717   -0.41600   0.20008   0.07977   0.88717   -0.41600   0.20008   102.17896
1016   0.07971   0.88681   -0.41694   0.19965   0.07971   0.88681   -0.41694   0.19965   102.23694
1017   0.07975   0.88678   -0.41716   0.19938   0.07975   0.88678   -0.41716   0.19938   102.17896
1018   0.07981   0.88629   -0.41734   0.20154   0.07981   0.88629   -0.41734   0.20154   102.16675
1019   0.07961   0.88742   -0.41575   0.19971   0.07961   0.88742   -0.41575   0.19971   102.19421
1020   0.07946   0.88656   -0.41743   0.19999   0.07946   0.88656   -0.41743   0.19999   102.29187
1021   0.07970   0.88644   -0.41774   0.19999   0.07970   0.88644   -0.41774   0.19999   102.16980
1022   0.07978   0.88678   -0.41658   0.20081   0.07978   0.88678   -0.41658   0.20081   102.14539
1023   0.07970   0.88730   -0.41603   0.20002   0.07970   0.88730   -0.41603   0.20002   102.23999
1024   0.07961   0.88708   -0.41621   0.20023   0.07961   0.88708   -0.41621   0.20023   102.25220
1025   0.07975   0.88687   -0.41676   0.19999   0.07975   0.88687   -0.41676   0.19999   102.14539
1026   0.07980   0.88681   -0.41740   0.19926   0.07980   0.88681   -0.41740   0.19926   102.15454
1027   0.07975   0.88723   -0.41606   0.20005   0.07975   0.88723   -0.41606   0.20005   102.21558
1028   0.07974   0.88653   -0.41716   0.20054   0.07974   0.88653   -0.41716   0.20054   102.23694
1029   0.07984   0.88733   -0.41523   0.20103   0.07984   0.88733   -0.41523   0.20103   102.12097
1030   0.07983   0.88720   -0.41658   0.19910   0.07983   0.88720   -0.41658   0.19910   102.17896
1031   0.07971   0.88672   -0.41661   0.20109   0.07971   0.88672   -0.41661   0.20109   102.24915
1032   0.07979   0.88665   -0.41704   0.20023   0.07979   0.88665   -0.41704   0.20023   102.19116
1033   0.07979   0.88650   -0.41685   0.20106   0.07979   0.88650   -0.41685   0.20106   102.15454
1034   0.07973   0.88696   -0.41646   0.19977   0.07973   0.88696   -0.41646   0.19977   102.17896
1035   0.07962   0.88672   -0.41655   0.20078   0.07962   0.88672   -0.41655   0.20078   102.26440
1036   0.07970   0.88717   -0.41575   0.20048   0.07970   0.88717   -0.41575   0.20048   102.16980
1037   0.07974   0.88675   -0.41700   0.20005   0.07974   0.88675   -0.41700   0.20005   102.17896
1038   0.07971   0.88705   -0.41633   0.19987   0.07971   0.88705   -0.41633   0.19987   102.22778
1039   0.07982   0.88705   -0.41652   0.19947   0.07982   0.88705   -0.41652   0.19947   102.23389
1040   0.07981   0.88693   -0.41606   0.20106   0.07981   0.88693   -0.41606   0.20106   102.14233
1041   0.07967   0.88681   -0.41688   0.19996   0.07967   0.88681   -0.41688   0.19996   102.15759
1042   0.07974   0.88711   -0.41609   0.20026   0.07974   0.88711   -0.41609   0.20026   102.16980
1043   0.07985   0.88662   -0.41673   0.20081   0.07985   0.88662   -0.41673   0.20081   102.23389
1044   0.07984   0.88635   -0.41731   0.20090   0.07984   0.88635   -0.41731   0.20090   102.16675
1045   0.07976   0.88739   -0.41569   0.20011   0.07976   0.88739   -0.41569   0.20011   102.20337
1046   0.07972   0.88678   -0.41762   0.19913   0.07972   0.88678   -0.41762   0.19913   102.24915
1047   0.07974   0.88739   -0.41563   0.20011   0.07974   0.88739   -0.41563   0.20011   102.16980
1048   0.07974   0.88668   -0.41740   0.19971   0.07974   0.88668   -0.41740   0.19971   102.16980
1049   0.07962   0.88723   -0.41661   0.19910   0.07962   0.88723   -0.41661   0.19910   102.21863
1050   0.07969   0.88702   -0.41655   0.19974   0.07969   0.88702   -0.41655   0.19974   102.23999
1051   0.07972   0.88739   -0.41554   0.20069   0.07972   0.88739   -0.41554   0.20069   102.09961
1052   0.07971   0.88708   -0.41670   0.19922   0.07971   0.88708   -0.41670   0.19922   102.18201
1053   0.07969   0.88705   -0.41643   0.19993   0.07969   0.88705   -0.41643   0.19993   102.27356
1054   0.07974   0.88656   -0.41737   0.20011   0.07974   0.88656   -0.41737   0.20011   102.17896
1055   0.07995   0.88711   -0.41588   0.20048   0.07995   0.88711   -0.41588   0.20048   102.12708
1056   0.07974   0.88723   -0.41658   0.19904   0.07974   0.88723   -0.41658   0.19904   102.23694
1057   0.07945   0.88748   -0.41600   0.19889   0.07945   0.88748   -0.41600   0.19889   102.26746
1058   0.07972   0.88717   -0.41554   0.20075   0.07972   0.88717   -0.41554   0.20075   102.15759
1059   0.07992   0.88696   -0.41639   0.20054   0.07992   0.88696   -0.41639   0.20054   102.11792
1060   0.07974   0.88708   -0.41646   0.19996   0.07974   0.88708   -0.41646   0.19996   102.17896
1061   0.07951   0.88754   -0.41530   0.20008   0.07951   0.88754   -0.41530   0.20008   102.26746
1062   0.07968   0.88711   -0.41621   0.19993   0.07968   0.88711   -0.41621   0.19993   102.15759
1063   0.07971   0.88662   -0.41740   0.19996   0.07971   0.88662   -0.41740   0.19996   102.12402
1064   0.07968   0.88705   -0.41646   0.19959   0.07968   0.88705   -0.41646   0.19959   102.26135
1065   0.07963   0.88672   -0.41673   0.20075   0.07963   0.88672   -0.41673   0.20075   102.22778
1066   0.07975   0.88610   -0.41801   0.20038   0.07975   0.88610   -0.41801   0.20038   102.19116
1067   0.07975   0.88730   -0.41557   0.20005   0.07975   0.88730   -0.41557   0.20005   102.15759
1068   0.07969   0.88696   -0.41676   0.19968   0.07969   0.88696   -0.41676   0.19968   102.23999
1069   0.07969   0.88681   -0.41676   0.20020   0.07969   0.88681   -0.41676   0.20020   102.22778
1070   0.07976   0.88684   -0.41673   0.20038   0.07976   0.88684   -0.41673   0.20038   102.16675
1071   0.07978   0.88705   -0.41643   0.20008   0.07978   0.88705   -0.41643   0.20008   102.15454
1072   0.07970   0.88672   -0.41700   0.19996   0.07970   0.88672   -0.41700   0.19996   102.23999
1073   0.07977   0.88705   -0.41630   0.20020   0.07977   0.88705   -0.41630   0.20020   102.17896
1074   0.07979   0.88696   -0.41624   0.20066   0.07979   0.88696   -0.41624   0.20066   102.13318
1075   0.07971   0.88705   -0.41646   0.20026   0.07971   0.88705   -0.41646   0.20026   102.21558
1076   0.07965   0.88708   -0.41655   0.19996   0.07965   0.88708   -0.41655   0.19996   102.19421
1077   0.07971   0.88650   -0.41697   0.20121   0.07971   0.88650   -0.41697   0.20121   102.15759
1078   0.07974   0.88693   -0.41643   0.20069   0.07974   0.88693   -0.41643   0.20069   102.19116
1079   0.07966   0.88736   -0.41566   0.20032   0.07966   0.88736   -0.41566   0.20032   102.22778
1080   0.07970   0.88714   -0.41597   0.20011   0.07970   0.88714   -0.41597   0.20011   102.16980
1081   0.07974   0.88696   -0.41697   0.19956   0.07974   0.88696   -0.41697   0.19956   102.16980
1082   0.07971   0.88684   -0.41618   0.20121   0.07971   0.88684   -0.41618   0.20121   102.20337
1083   0.07972   0.88675   -0.41731   0.19950   0.07972   0.88675   -0.41731   0.19950   102.23694
1084   0.07979   0.88699   -0.41600   0.20103   0.07979   0.88699   -0.41600   0.20103   102.13318
1085   0.07979   0.88699   -0.41673   0.19974   0.07979   0.88699   -0.41673   0.19974   102.13318
1086   0.07971   0.88696   -0.41670   0.20002   0.07971   0.88696   -0.41670   0.20002   102.23694
1087   0.07973   0.88690   -0.41676   0.19980   0.07973   0.88690   -0.41676   0.19980   102.26135
1088   0.07980   0.88714   -0.41606   0.20048   0.07980   0.88714   -0.41606   0.20048   102.10876
1089   0.07971   0.88723   -0.41588   0.19999   0.07971   0.88723   -0.41588   0.19999   102.14539
1090   0.07962   0.88739   -0.41603   0.19913   0.07962   0.88739   -0.41603   0.19913   102.25220
1091   0.07966   0.88748   -0.41557   0.19974   0.07966   0.88748   -0.41557   0.19974   102.22778
1092   0.07970   0.88745   -0.41533   0.20032   0.07970   0.88745   -0.41533   0.20032   102.12402
1093   0.07973   0.88699   -0.41725   0.19880   0.07973   0.88699   -0.41725   0.19880   102.20337
1094   0.07966   0.88723   -0.41597   0.20017   0.07966   0.88723   -0.41597   0.20017   102.23999
1095   0.07973   0.88708   -0.41578   0.20087   0.07973   0.88708   -0.41578   0.20087   102.15759
1096   0.07980   0.88690   -0.41746   0.19877   0.07980   0.88690   -0.41746   0.19877   102.15454
1097   0.07974   0.88730   -0.41563   0.20072   0.07974   0.88730   -0.41563   0.20072   102.21558
1098   0.07970   0.88720   -0.41606   0.20035   0.07970   0.88720   -0.41606   0.20035   102.27356
1099   0.07978   0.88720   -0.41630   0.19968   0.07978   0.88720   -0.41630   0.19968   102.16675
1100   0.07980   0.88730   -0.41591   0.20002   0.07980   0.88730   -0.41591   0.20002   102.10876
1101   0.07976   0.88766   -0.41530   0.19980   0.07976   0.88766   -0.41530   0.19980   102.17896
1102   0.07969   0.88726   -0.41624   0.19938   0.07969   0.88726   -0.41624   0.19938   102.24915
1103   0.07973   0.88723   -0.41585   0.20032   0.07973   0.88723   -0.41585   0.20032   102.14539
1104   0.07966   0.88748   -0.41511   0.20045   0.07966   0.88748   -0.41511   0.20045   102.19421
1105   0.07968   0.88742   -0.41578   0.19968   0.07968   0.88742   -0.41578   0.19968   102.23999
1106   0.07963   0.88675   -0.41670   0.20063   0.07963   0.88675   -0.41670   0.20063   102.25220
1107   0.07972   0.88736   -0.41551   0.20042   0.07972   0.88736   -0.41551   0.20042   102.14539
1108   0.07971   0.88733   -0.41606   0.19950   0.07971   0.88733   -0.41606   0.19950   102.19116
1109   0.07971   0.88739   -0.41554   0.19996   0.07971   0.88739   -0.41554   0.19996   102.26135
1110   0.07978   0.88726   -0.41591   0.20023   0.07978   0.88726   -0.41591   0.20023   102.14539
1111   0.07975   0.88702   -0.41652   0.19999   0.07975   0.88702   -0.41652   0.19999   102.15759
1112   0.07975   0.88723   -0.41591   0.20014   0.07975   0.88723   -0.41591   0.20014   102.20337
1113   0.07970   0.88733   -0.41566   0.20023   0.07970   0.88733   -0.41566   0.20023   102.23999
1114   0.07978   0.88708   -0.41569   0.20118   0.07978   0.88708   -0.41569   0.20118   102.19116
1115   0.07977   0.88736   -0.41578   0.19990   0.07977   0.88736   -0.41578   0.19990   102.19116
1116   0.07969   0.88736   -0.41563   0.20011   0.07969   0.88736   -0.41563   0.20011   102.22778
1117   0.07969   0.88751   -0.41517   0.20045   0.07969   0.88751   -0.41517   0.20045   102.20337
1118   0.07971   0.88708   -0.41655   0.19953   0.07971   0.88708   -0.41655   0.19953   102.15759
1119   0.07972   0.88711   -0.41609   0.20011   0.07972   0.88711   -0.41609   0.20011   102.19116
1120   0.07975   0.88778   -0.41527   0.19938   0.07975   0.88778   -0.41527   0.19938   102.23694
1121   0.07978   0.88696   -0.41633   0.20063   0.07978   0.88696   -0.41633   0.20063   102.17896
1122   0.07975   0.88788   -0.41408   0.20133   0.07975   0.88788   -0.41408   0.20133   102.12097
1123   0.07970   0.88726   -0.41603   0.19977   0.07970   0.88726   -0.41603   0.19977   102.24915
1124   0.07970   0.88714   -0.41615   0.19999   0.07970   0.88714   -0.41615   0.19999   102.27356
1125   0.07978   0.88714   -0.41566   0.20090   0.07978   0.88714   -0.41566   0.20090   102.16675
1126   0.07979   0.88708   -0.41612   0.20038   0.07979   0.88708   -0.41612   0.20038   102.12097
1127   0.07973   0.88647   -0.41777   0.19956   0.07973   0.88647   -0.41777   0.19956   102.23694
1128   0.07974   0.88739   -0.41557   0.20026   0.07974   0.88739   -0.41557   0.20026   102.22473
1129   0.07979   0.88702   -0.41621   0.20017   0.07979   0.88702   -0.41621   0.20017   102.12097
1130   0.07975   0.88726   -0.41600   0.19965   0.07975   0.88726   -0.41600   0.19965   102.13318
1131   0.07959   0.88662   -0.41774   0.19929   0.07959   0.88662   -0.41774   0.19929   102.27661
1132   0.07960   0.88702   -0.41627   0.20014   0.07960   0.88702   -0.41627   0.20014   102.26440
1133   0.07975   0.88675   -0.41667   0.20087   0.07975   0.88675   -0.41667   0.20087   102.13318
1134   0.07970   0.88726   -0.41545   0.20099   0.07970   0.88726   -0.41545   0.20099   102.15759
1135   0.07968   0.88730   -0.41566   0.20023   0.07968   0.88730   -0.41566   0.20023   102.26135
1136   0.07969   0.88763   -0.41484   0.20075   0.07969   0.88763   -0.41484   0.20075   102.18201
1137   0.07974   0.88748   -0.41487   0.20106   0.07974   0.88748   -0.41487   0.20106   102.12402
1138   0.07971   0.88723   -0.41639   0.19941   0.07971   0.88723   -0.41639   0.19941   102.15759
1139   0.07945   0.88781   -0.41511   0.19932   0.07945   0.88781   -0.41511   0.19932   102.26746
1140   0.07959   0.88702   -0.41643   0.19968   0.07959   0.88702   -0.41643   0.19968   102.19421
1141   0.07985   0.88714   -0.41612   0.19980   0.07985   0.88714   -0.41612   0.19980   102.16675
1142   0.07974   0.88736   -0.41612   0.19935   0.07974   0.88736   -0.41612   0.19935   102.21558
1143   0.07961   0.88751   -0.41542   0.20035   0.07961   0.88751   -0.41542   0.20035   102.21863
1144   0.07962   0.88696   -0.41643   0.20017   0.07962   0.88696   -0.41643   0.20017   102.17285
1145   0.07960   0.88684   -0.41722   0.19953   0.07960   0.88684   -0.41722   0.19953   102.19421
1146   0.07966   0.88751   -0.41569   0.19968   0.07966   0.88751   -0.41569   0.19968   102.20642
1147   0.07966   0.88696   -0.41633   0.20026   0.07966   0.88696   -0.41633   0.20026   102.20642
1148   0.07968   0.88748   -0.41560   0.19980   0.07968   0.88748   -0.41560   0.19980   102.15759
1149   0.07966   0.88702   -0.41725   0.19874   0.07966   0.88702   -0.41725   0.19874   102.23999
1150   0.07968   0.88726   -0.41609   0.19990   0.07968   0.88726   -0.41609   0.19990   102.24915
1151   0.07975   0.88687   -0.41639   0.20075   0.07975   0.88687   -0.41639   0.20075   102.13318
1152   0.07972   0.88668   -0.41728   0.19971   0.07972   0.88668   -0.41728   0.19971   102.19116
1153   0.07967   0.88672   -0.41679   0.20075   0.07967   0.88672   -0.41679   0.20075   102.27356
1154   0.07971   0.88647   -0.41780   0.19984   0.07971   0.88647   -0.41780   0.19984   102.21558
1155   0.07990   0.88723   -0.41581   0.20054   0.07990   0.88723   -0.41581   0.20054   102.09656
1156   0.07986   0.88708   -0.41649   0.19941   0.07986   0.88708   -0.41649   0.19941   102.17590
1157   0.07967   0.88711   -0.41639   0.19944   0.07967   0.88711   -0.41639   0.19944   102.28577
1158   0.07965   0.88723   -0.41560   0.20121   0.07965   0.88723   -0.41560   0.20121   102.23999
1159   0.07975   0.88736   -0.41569   0.19984   0.07975   0.88736   -0.41569   0.19984   102.14539
1160   0.07983   0.88751   -0.41551   0.19971   0.07983   0.88751   -0.41551   0.19971   102.20032
1161   0.07968   0.88723   -0.41627   0.19935   0.07968   0.88723   -0.41627   0.19935   102.28577
1162   0.07976   0.88757   -0.41508   0.20032   0.07976   0.88757   -0.41508   0.20032   102.15759
1163   0.07979   0.88681   -0.41688   0.20008   0.07979   0.88681   -0.41688   0.20008   102.14539
1164   0.07977   0.88717   -0.41612   0.19965   0.07977   0.88717   -0.41612   0.19965   102.22473
1165   0.07970   0.88730   -0.41578   0.19971   0.07970   0.88730   -0.41578   0.19971   102.29492
1166   0.07980   0.88726   -0.41588   0.19974   0.07980   0.88726   -0.41588   0.19974   102.15454
1167   0.07982   0.88711   -0.41606   0.20023   0.07982   0.88711   -0.41606   0.20023   102.09656
1168   0.07974   0.88684   -0.41697   0.19959   0.07974   0.88684   -0.41697   0.19959   102.24915
1169   0.07973   0.88708   -0.41618   0.20014   0.07973   0.88708   -0.41618   0.20014   102.27356
1170   0.07977   0.88723   -0.41560   0.20084   0.07977   0.88723   -0.41560   0.20084   102.14539
1171   0.07975   0.88739   -0.41594   0.19953   0.07975   0.88739   -0.41594   0.19953   102.17896
1172   0.07963   0.88681   -0.41734   0.19916   0.07963   0.88681   -0.41734   0.19916   102.26440
1173   0.07968   0.88708   -0.41633   0.19996   0.07968   0.88708   -0.41633   0.19996   102.20337
1174   0.07973   0.88678   -0.41700   0.19962   0.07973   0.88678   -0.41700   0.19962   102.19116
1175   0.07972   0.88690   -0.41700   0.19929   0.07972   0.88690   -0.41700   0.19929   102.22778
1176   0.07971   0.88687   -0.41737   0.19855   0.07971   0.88687   -0.41737   0.19855   102.24915
1177   0.07974   0.88723   -0.41597   0.20048   0.07974   0.88723   -0.41597   0.20048   102.13318
1178   0.07975   0.88702   -0.41636   0.19993   0.07975   0.88702   -0.41636   0.19993   102.19116
1179   0.07974   0.88687   -0.41697   0.19968   0.07974   0.88687   -0.41697   0.19968   102.23694
1180   0.07977   0.88708   -0.41661   0.19947   0.07977   0.88708   -0.41661   0.19947   102.20337
1181   0.07980   0.88705   -0.41575   0.20115   0.07980   0.88705   -0.41575   0.20115   102.14539
1182   0.07978   0.88723   -0.41624   0.19959   0.07978   0.88723   -0.41624   0.19959   102.20337
1183   0.07978   0.88665   -0.41768   0.19913   0.07978   0.88665   -0.41768   0.19913   102.23694
1184   0.07976   0.88647   -0.41691   0.20154   0.07976   0.88647   -0.41691   0.20154   102.16675
1185   0.07976   0.88665   -0.41658   0.20121   0.07976   0.88665   -0.41658   0.20121   102.15759
1186   0.07963   0.88720   -0.41621   0.19999   0.07963   0.88720   -0.41621   0.19999   102.23999
1187   0.07966   0.88723   -0.41563   0.20057   0.07966   0.88723   -0.41563   0.20057   102.23999
1188   0.07975   0.88681   -0.41719   0.19929   0.07975   0.88681   -0.41719   0.19929   102.14539
1189   0.07979   0.88687   -0.41652   0.20048   0.07979   0.88687   -0.41652   0.20048   102.12097
1190   0.07971   0.88696   -0.41670   0.20017   0.07971   0.88696   -0.41670   0.20017   102.23694
1191   0.07970   0.88650   -0.41758   0.19996   0.07970   0.88650   -0.41758   0.19996   102.23999
1192   0.07984   0.88668   -0.41716   0.20017   0.07984   0.88668   -0.41716   0.20017   102.12097
1193   0.07980   0.88644   -0.41777   0.19996   0.07980   0.88644   -0.41777   0.19996   102.17896
1194   0.07975   0.88726   -0.41594   0.19993   0.07975   0.88726   -0.41594   0.19993   102.29492
1195   0.07972   0.88742   -0.41523   0.20060   0.07972   0.88742   -0.41523   0.20060   102.20337
1196   0.07987   0.88653   -0.41731   0.20011   0.07987   0.88653   -0.41731   0.20011   102.13013
1197   0.07980   0.88653   -0.41771   0.19935   0.07980   0.88653   -0.41771   0.19935   102.19116
1198   0.07966   0.88705   -0.41627   0.20005   0.07966   0.88705   -0.41627   0.20005   102.30713
1199   0.07971   0.88681   -0.41691   0.19990   0.07971   0.88681   -0.41691   0.19990   102.22778
1200   0.07974   0.88687   -0.41679   0.20005   0.07974   0.88687   -0.41679   0.20005   102.12402
1201   0.07973   0.88672   -0.41752   0.19929   0.07973   0.88672   -0.41752   0.19929   102.22778
1202   0.07967   0.88690   -0.41704   0.19935   0.07967   0.88690   -0.41704   0.19935   102.25220
1203   0.07975   0.88690   -0.41633   0.20063   0.07975   0.88690   -0.41633   0.20063   102.15759
1204   0.07975   0.88687   -0.41691   0.19953   0.07975   0.88687   -0.41691   0.19953   102.16980
1205   0.07972   0.88705   -0.41679   0.19941   0.07972   0.88705   -0.41679   0.19941   102.23694
1206   0.07972   0.88647   -0.41743   0.20020   0.07972   0.88647   -0.41743   0.20020   102.24915
1207   0.07974   0.88647   -0.41762   0.20017   0.07974   0.88647   -0.41762   0.20017   102.20337
1208   0.07978   0.88690   -0.41691   0.19959   0.07978   0.88690   -0.41691   0.19959   102.20032
1209   0.07976   0.88681   -0.41722   0.19929   0.07976   0.88681   -0.41722   0.19929   102.23694
1210   0.07979   0.88681   -0.41652   0.20081   0.07979   0.88681   -0.41652   0.20081   102.17896
1211   0.07976   0.88681   -0.41655   0.20048   0.07976   0.88681   -0.41655   0.20048   102.20337
1212   0.07971   0.88702   -0.41667   0.19990   0.07971   0.88702   -0.41667   0.19990   102.21558
1213   0.07965   0.88665   -0.41719   0.20008   0.07965   0.88665   -0.41719   0.20008   102.21863
1214   0.07971   0.88638   -0.41710   0.20145   0.07971   0.88638   -0.41710   0.20145   102.14539
1215   0.07970   0.88641   -0.41777   0.20017   0.07970   0.88641   -0.41777   0.20017   102.18201
1216   0.07969   0.88668   -0.41707   0.20051   0.07969   0.88668   -0.41707   0.20051   102.22778
1217   0.07970   0.88617   -0.41813   0.20032   0.07970   0.88617   -0.41813   0.20032   102.23999
1218   0.07975   0.88592   -0.41841   0.20078   0.07975   0.88592   -0.41841   0.20078   102.15759
1219   0.07957   0.88617   -0.41813   0.20020   0.07957   0.88617   -0.41813   0.20020   102.21863
1220   0.07952   0.88623   -0.41829   0.19953   0.07952   0.88623   -0.41829   0.19953   102.25525
1221   0.07982   0.88626   -0.41755   0.20090   0.07982   0.88626   -0.41755   0.20090   102.20032
1222   0.07989   0.88614   -0.41853   0.19962   0.07989   0.88614   -0.41853   0.19962   102.15149
1223   0.07974   0.88635   -0.41728   0.20109   0.07974   0.88635   -0.41728   0.20109   102.27051
1224   0.07966   0.88595   -0.41813   0.20106   0.07966   0.88595   -0.41813   0.20106   102.28577
1225   0.07976   0.88668   -0.41707   0.20035   0.07976   0.88668   -0.41707   0.20035   102.14539
1226   0.07981   0.88668   -0.41704   0.20032   0.07981   0.88668   -0.41704   0.20032   102.10876
1227   0.07964   0.88614   -0.41820   0.20032   0.07964   0.88614   -0.41820   0.20032   102.26440
1228   0.07969   0.88662   -0.41780   0.19916   0.07969   0.88662   -0.41780   0.19916   102.24915
1229   0.07974   0.88647   -0.41768   0.19984   0.07974   0.88647   -0.41768   0.19984   102.17896
1230   0.07978   0.88635   -0.41762   0.20035   0.07978   0.88635   -0.41762   0.20035   102.13318
1231   0.07969   0.88681   -0.41707   0.19990   0.07969   0.88681   -0.41707   0.19990   102.24915
1232   0.07971   0.88690   -0.41664   0.20002   0.07971   0.88690   -0.41664   0.20002   102.22778
1233   0.07978   0.88665   -0.41755   0.19962   0.07978   0.88665   -0.41755   0.19962   102.16675
1234   0.07979   0.88650   -0.41758   0.20008   0.07979   0.88650   -0.41758   0.20008   102.15454
1235   0.07973   0.88617   -0.41877   0.19880   0.07973   0.88617   -0.41877   0.19880   102.27356
1236   0.07975   0.88623   -0.41801   0.20035   0.07975   0.88623   -0.41801   0.20035   102.21558
1237   0.07977   0.88647   -0.41743   0.20029   0.07977   0.88647   -0.41743   0.20029   102.17896
1238   0.07978   0.88641   -0.41786   0.19987   0.07978   0.88641   -0.41786   0.19987   102.16675
1239   0.07981   0.88623   -0.41807   0.19999   0.07981   0.88623   -0.41807   0.19999   102.24609
1240   0.07978   0.88607   -0.41820   0.20042   0.07978   0.88607   -0.41820   0.20042   102.19116
1241   0.07957   0.88632   -0.41774   0.20060   0.07957   0.88632   -0.41774   0.20060   102.12708
1242   0.07966   0.88614   -0.41786   0.20045   0.07966   0.88614   -0.41786   0.20045   102.23999
1243   0.07978   0.88614   -0.41786   0.20093   0.07978   0.88614   -0.41786   0.20093   102.22473
1244   0.07984   0.88672   -0.41710   0.20045   0.07984   0.88672   -0.41710   0.20045   102.13013
1245   0.07970   0.88629   -0.41746   0.20090   0.07970   0.88629   -0.41746   0.20090   102.22778
1246   0.07964   0.88629   -0.41771   0.20081   0.07964   0.88629   -0.41771   0.20081   102.21863
1247   0.07975   0.88687   -0.41630   0.20118   0.07975   0.88687   -0.41630   0.20118   102.19116
1248   0.07984   0.88638   -0.41780   0.19999   0.07984   0.88638   -0.41780   0.19999   102.16675
1249   0.07976   0.88623   -0.41832   0.19990   0.07976   0.88623   -0.41832   0.19990   102.22473
1250   0.07972   0.88681   -0.41707   0.19990   0.07972   0.88681   -0.41707   0.19990   102.21558
1251   0.07983   0.88617   -0.41807   0.20048   0.07983   0.88617   -0.41807   0.20048   102.13318
1252   0.07978   0.88629   -0.41795   0.20020   0.07978   0.88629   -0.41795   0.20020   102.17896
1253   0.07972   0.88589   -0.41920   0.19962   0.07972   0.88589   -0.41920   0.19962   102.27356
1254   0.07969   0.88665   -0.41728   0.19999   0.07969   0.88665   -0.41728   0.19999   102.22778
1255   0.07987   0.88610   -0.41841   0.20005   0.07987   0.88610   -0.41841   0.20005   102.14233
1256   0.07970   0.88675   -0.41725   0.19944   0.07970   0.88675   -0.41725   0.19944   102.19116
1257   0.07942   0.88607   -0.41917   0.19831   0.07942   0.88607   -0.41917   0.19831   102.25830
1258   0.07970   0.88632   -0.41746   0.20063   0.07970   0.88632   -0.41746   0.20063   102.22778
1259   0.07986   0.88659   -0.41682   0.20063   0.07986   0.88659   -0.41682   0.20063   102.08435
1260   0.07972   0.88644   -0.41768   0.19999   0.07972   0.88644   -0.41768   0.19999   102.20337
1261   0.07959   0.88626   -0.41798   0.20026   0.07959   0.88626   -0.41798   0.20026   102.25220
1262   0.07976   0.88589   -0.41859   0.20011   0.07976   0.88589   -0.41859   0.20011   102.17896
1263   0.07984   0.88641   -0.41728   0.20081   0.07984   0.88641   -0.41728   0.20081   102.14233
1264   0.07977   0.88653   -0.41807   0.19874   0.07977   0.88653   -0.41807   0.19874   102.20337
1265   0.07967   0.88595   -0.41856   0.19984   0.07967   0.88595   -0.41856   0.19984   102.26135
1266   0.07977   0.88623   -0.41838   0.19971   0.07977   0.88623   -0.41838   0.19971   102.19116
1267   0.07978   0.88607   -0.41859   0.19944   0.07978   0.88607   -0.41859   0.19944   102.15454
1268   0.07961   0.88635   -0.41752   0.20054   0.07961   0.88635   -0.41752   0.20054   102.23083
1269   0.07966   0.88653   -0.41758   0.19947   0.07966   0.88653   -0.41758   0.19947   102.28577
1270   0.07972   0.88638   -0.41783   0.19968   0.07972   0.88638   -0.41783   0.19968   102.15759
1271   0.07974   0.88684   -0.41725   0.19956   0.07974   0.88684   -0.41725   0.19956   102.16980
1272   0.07965   0.88598   -0.41871   0.20020   0.07965   0.88598   -0.41871   0.20020   102.23999
1273   0.07970   0.88607   -0.41823   0.20029   0.07970   0.88607   -0.41823   0.20029   102.24915
1274   0.07978   0.88620   -0.41856   0.19953   0.07978   0.88620   -0.41856   0.19953   102.20337
1275   0.07974   0.88662   -0.41758   0.19974   0.07974   0.88662   -0.41758   0.19974   102.20337
1276   0.07974   0.88659   -0.41713   0.20020   0.07974   0.88659   -0.41713   0.20020   102.22473
1277   0.07978   0.88641   -0.41731   0.20093   0.07978   0.88641   -0.41731   0.20093   102.17896
1278   0.07978   0.88601   -0.41810   0.20081   0.07978   0.88601   -0.41810   0.20081   102.15454
1279   0.07977   0.88598   -0.41862   0.20023   0.07977   0.88598   -0.41862   0.20023   102.19116
1280   0.07973   0.88595   -0.41844   0.20020   0.07973   0.88595   -0.41844   0.20020   102.28271
1281   0.07976   0.88607   -0.41853   0.20023   0.07976   0.88607   -0.41853   0.20023   102.19116
1282   0.07966   0.88595   -0.41859   0.20002   0.07966   0.88595   -0.41859   0.20002   102.23999
1283   0.07966   0.88650   -0.41792   0.19953   0.07966   0.88650   -0.41792   0.19953   102.27356
1284   0.07967   0.88623   -0.41807   0.20014   0.07967   0.88623   -0.41807   0.20014   102.23999
1285   0.07977   0.88626   -0.41765   0.20103   0.07977   0.88626   -0.41765   0.20103   102.16675
1286   0.07971   0.88626   -0.41820   0.19996   0.07971   0.88626   -0.41820   0.19996   102.22778
1287   0.07970   0.88592   -0.41890   0.19971   0.07970   0.88592   -0.41890   0.19971   102.26135
1288   0.07976   0.88675   -0.41667   0.20060   0.07976   0.88675   -0.41667   0.20060   102.16675
1289   0.07978   0.88641   -0.41768   0.20048   0.07978   0.88641   -0.41768   0.20048   102.14539
1290   0.07978   0.88635   -0.41765   0.20072   0.07978   0.88635   -0.41765   0.20072   102.21252
1291   0.07969   0.88607   -0.41832   0.20026   0.07969   0.88607   -0.41832   0.20026   102.29492
1292   0.07981   0.88604   -0.41838   0.20038   0.07981   0.88604   -0.41838   0.20038   102.16675
1293   0.07981   0.88644   -0.41765   0.19971   0.07981   0.88644   -0.41765   0.19971   102.13318
1294   0.07972   0.88653   -0.41737   0.20032   0.07972   0.88653   -0.41737   0.20032   102.21558
1295   0.07968   0.88626   -0.41804   0.20005   0.07968   0.88626   -0.41804   0.20005   102.24915
1296   0.07969   0.88586   -0.41893   0.19987   0.07969   0.88586   -0.41893   0.19987   102.15759
1297   0.07972   0.88650   -0.41713   0.20096   0.07972   0.88650   -0.41713   0.20096   102.15759
1298   0.07963   0.88638   -0.41743   0.20078   0.07963   0.88638   -0.41743   0.20078   102.25220
1299   0.07970   0.88626   -0.41820   0.19996   0.07970   0.88626   -0.41820   0.19996   102.23999
1300   0.07976   0.88668   -0.41670   0.20084   0.07976   0.88668   -0.41670   0.20084   102.14539
1301   0.07977   0.88662   -0.41688   0.20103   0.07977   0.88662   -0.41688   0.20103   102.16675
1302   0.07971   0.88653   -0.41734   0.20014   0.07971   0.88653   -0.41734   0.20014   102.26135
1303   0.07977   0.88607   -0.41865   0.19959   0.07977   0.88607   -0.41865   0.19959   102.23694
1304   0.07981   0.88583   -0.41890   0.20014   0.07981   0.88583   -0.41890   0.20014   102.18811
1305   0.07978   0.88589   -0.41887   0.20011   0.07978   0.88589   -0.41887   0.20011   102.20337
1306   0.07975   0.88586   -0.41911   0.19904   0.07975   0.88586   -0.41911   0.19904   102.27051
1307   0.07977   0.88601   -0.41847   0.19977   0.07977   0.88601   -0.41847   0.19977   102.19116
1308   0.07977   0.88607   -0.41804   0.20072   0.07977   0.88607   -0.41804   0.20072   102.17896
1309   0.07964   0.88617   -0.41801   0.20045   0.07964   0.88617   -0.41801   0.20045   102.22778
1310   0.07962   0.88601   -0.41823   0.20029   0.07962   0.88601   -0.41823   0.20029   102.23999
1311   0.07971   0.88589   -0.41877   0.20045   0.07971   0.88589   -0.41877   0.20045   102.20337
1312   0.07970   0.88635   -0.41810   0.19959   0.07970   0.88635   -0.41810   0.19959   102.23999
1313   0.07971   0.88598   -0.41850   0.20026   0.07971   0.88598   -0.41850   0.20026   102.22778
1314   0.07971   0.88607   -0.41841   0.20014   0.07971   0.88607   -0.41841   0.20014   102.21558
1315   0.07977   0.88571   -0.41868   0.20103   0.07977   0.88571   -0.41868   0.20103   102.23694
1316   0.07975   0.88626   -0.41801   0.19977   0.07975   0.88626   -0.41801   0.19977   102.21558
1317   0.07972   0.88574   -0.41902   0.20032   0.07972   0.88574   -0.41902   0.20032   102.28271
1318   0.07978   0.88617   -0.41807   0.19996   0.07978   0.88617   -0.41807   0.19996   102.21252
1319   0.07982   0.88598   -0.41871   0.20020   0.07982   0.88598   -0.41871   0.20020   102.20032
1320   0.07983   0.88583   -0.41899   0.19984   0.07983   0.88583   -0.41899   0.19984   102.24609
1321   0.07976   0.88543   -0.41914   0.20118   0.07976   0.88543   -0.41914   0.20118   102.24915
1322   0.07970   0.88580   -0.41862   0.20096   0.07970   0.88580   -0.41862   0.20096   102.13623
1323   0.07963   0.88620   -0.41807   0.20011   0.07963   0.88620   -0.41807   0.20011   102.21863
1324   0.07968   0.88598   -0.41902   0.19953   0.07968   0.88598   -0.41902   0.19953   102.27356
1325   0.07968   0.88595   -0.41841   0.20060   0.07968   0.88595   -0.41841   0.20060   102.22778
1326   0.07971   0.88635   -0.41713   0.20112   0.07971   0.88635   -0.41713   0.20112   102.16980
1327   0.07966   0.88607   -0.41826   0.20035   0.07966   0.88607   -0.41826   0.20035   102.22778
1328   0.07964   0.88586   -0.41902   0.19959   0.07964   0.88586   -0.41902   0.19959   102.27356
1329   0.07975   0.88614   -0.41804   0.20042   0.07975   0.88614   -0.41804   0.20042   102.15759
1330   0.07977   0.88580   -0.41890   0.20032   0.07977   0.88580   -0.41890   0.20032   102.15759
1331   0.07971   0.88583   -0.41884   0.20008   0.07971   0.88583   -0.41884   0.20008   102.24915
1332   0.07967   0.88620   -0.41786   0.20096   0.07967   0.88620   -0.41786   0.20096   102.28577
1333   0.07980   0.88583   -0.41881   0.20020   0.07980   0.88583   -0.41881   0.20020   102.16675
1334   0.07978   0.88604   -0.41823   0.20060   0.07978   0.88604   -0.41823   0.20060   102.14539
1335   0.07966   0.88583   -0.41890   0.19987   0.07966   0.88583   -0.41890   0.19987   102.23999
1336   0.07962   0.88553   -0.41908   0.20060   0.07962   0.88553   -0.41908   0.20060   102.25220
1337   0.07969   0.88580   -0.41899   0.20032   0.07969   0.88580   -0.41899   0.20032   102.14844
1338   0.07959   0.88604   -0.41850   0.20008   0.07959   0.88604   -0.41850   0.20008   102.18506
1339   0.07935   0.88553   -0.41963   0.19971   0.07935   0.88553   -0.41963   0.19971   102.26135
1340   0.07964   0.88607   -0.41868   0.19965   0.07964   0.88607   -0.41868   0.19965   102.22778
1341   0.07978   0.88650   -0.41755   0.20029   0.07978   0.88650   -0.41755   0.20029   102.15454
1342   0.07971   0.88641   -0.41844   0.19871   0.07971   0.88641   -0.41844   0.19871   102.20337
1343   0.07959   0.88641   -0.41820   0.19922   0.07959   0.88641   -0.41820   0.19922   102.21863
1344   0.07967   0.88635   -0.41786   0.19987   0.07967   0.88635   -0.41786   0.19987   102.18201
1345   0.07977   0.88598   -0.41884   0.19971   0.07977   0.88598   -0.41884   0.19971   102.19116
1346   0.07968   0.88604   -0.41847   0.20023   0.07968   0.88604   -0.41847   0.20023   102.22778
1347   0.07967   0.88641   -0.41780   0.20008   0.07967   0.88641   -0.41780   0.20008   102.18201
1348   0.07970   0.88632   -0.41804   0.19999   0.07970   0.88632   -0.41804   0.19999   102.16980
1349   0.07966   0.88614   -0.41835   0.20011   0.07966   0.88614   -0.41835   0.20011   102.23999
1350   0.07959   0.88623   -0.41820   0.19990   0.07959   0.88623   -0.41820   0.19990   102.25220
1351   0.07965   0.88614   -0.41862   0.19977   0.07965   0.88614   -0.41862   0.19977   102.18201
1352   0.07968   0.88607   -0.41813   0.20063   0.07968   0.88607   -0.41813   0.20063   102.19421
1353   0.07964   0.88598   -0.41862   0.19987   0.07964   0.88598   -0.41862   0.19987   102.22778
1354   0.07965   0.88580   -0.41887   0.20026   0.07965   0.88580   -0.41887   0.20026   102.29797
1355   0.07979   0.88568   -0.41896   0.20072   0.07979   0.88568   -0.41896   0.20072   102.16675
1356   0.07981   0.88620   -0.41780   0.20078   0.07981   0.88620   -0.41780   0.20078   102.18811
1357   0.07966   0.88629   -0.41813   0.19971   0.07966   0.88629   -0.41813   0.19971   102.30713
1358   0.07971   0.88617   -0.41807   0.20051   0.07971   0.88617   -0.41807   0.20051   102.24915
1359   0.07987   0.88607   -0.41813   0.20072   0.07987   0.88607   -0.41813   0.20072   102.13013
1360   0.07983   0.88623   -0.41823   0.20014   0.07983   0.88623   -0.41823   0.20014   102.22473
1361   0.07972   0.88620   -0.41780   0.20078   0.07972   0.88620   -0.41780   0.20078   102.30713
1362   0.07974   0.88653   -0.41734   0.20051   0.07974   0.88653   -0.41734   0.20051   102.21558
1363   0.07981   0.88568   -0.41844   0.20157   0.07981   0.88568   -0.41844   0.20157   102.13318
1364   0.07964   0.88568   -0.41911   0.20057   0.07964   0.88568   -0.41911   0.20057   102.20642
1365   0.07964   0.88620   -0.41844   0.19941   0.07964   0.88620   -0.41844   0.19941   102.29797
1366   0.07966   0.88601   -0.41859   0.20005   0.07966   0.88601   -0.41859   0.20005   102.18201
1367   0.07973   0.88638   -0.41762   0.20057   0.07973   0.88638   -0.41762   0.20057   102.13318
1368   0.07969   0.88610   -0.41853   0.19993   0.07969   0.88610   -0.41853   0.19993   102.22778
1369   0.07968   0.88577   -0.41926   0.19987   0.07968   0.88577   -0.41926   0.19987   102.22778
1370   0.07977   0.88610   -0.41868   0.19935   0.07977   0.88610   -0.41868   0.19935   102.20337
1371   0.07977   0.88626   -0.41807   0.19996   0.07977   0.88626   -0.41807   0.19996   102.15759
1372   0.07972   0.88583   -0.41881   0.19990   0.07972   0.88583   -0.41881   0.19990   102.27356
1373   0.07973   0.88601   -0.41896   0.19929   0.07973   0.88601   -0.41896   0.19929   102.23694
1374   0.07981   0.88565   -0.41929   0.19999   0.07981   0.88565   -0.41929   0.19999   102.20032
1375   0.07976   0.88641   -0.41749   0.20060   0.07976   0.88641   -0.41749   0.20060   102.17896
1376   0.07970   0.88568   -0.41948   0.19971   0.07970   0.88568   -0.41948   0.19971   102.26135
1377   0.07966   0.88571   -0.41896   0.20069   0.07966   0.88571   -0.41896   0.20069   102.23999
1378   0.07964   0.88592   -0.41923   0.19926   0.07964   0.88592   -0.41923   0.19926   102.20642
1379   0.07967   0.88580   -0.41905   0.19987   0.07967   0.88580   -0.41905   0.19987   102.25220
1380   0.07968   0.88635   -0.41865   0.19861   0.07968   0.88635   -0.41865   0.19861   102.23999
1381   0.07972   0.88583   -0.41856   0.20045   0.07972   0.88583   -0.41856   0.20045   102.18201
1382   0.07968   0.88595   -0.41856   0.19984   0.07968   0.88595   -0.41856   0.19984   102.24915
1383   0.07967   0.88632   -0.41853   0.19883   0.07967   0.88632   -0.41853   0.19883   102.26135
1384   0.07973   0.88607   -0.41816   0.20051   0.07973   0.88607   -0.41816   0.20051   102.23694
1385   0.07978   0.88604   -0.41859   0.19971   0.07978   0.88604   -0.41859   0.19971   102.15454
1386   0.07972   0.88601   -0.41826   0.20093   0.07972   0.88601   -0.41826   0.20093   102.23694
1387   0.07968   0.88586   -0.41911   0.19965   0.07968   0.88586   -0.41911   0.19965   102.28577
1388   0.07979   0.88598   -0.41844   0.20042   0.07979   0.88598   -0.41844   0.20042   102.17896
1389   0.07977   0.88589   -0.41896   0.19950   0.07977   0.88589   -0.41896   0.19950   102.17896
1390   0.07968   0.88568   -0.41935   0.19999   0.07968   0.88568   -0.41935   0.19999   102.23999
1391   0.07957   0.88568   -0.41945   0.19990   0.07957   0.88568   -0.41945   0.19990   102.28882
1392   0.07967   0.88614   -0.41829   0.20057   0.07967   0.88614   -0.41829   0.20057   102.14844
1393   0.07972   0.88607   -0.41826   0.20020   0.07972   0.88607   -0.41826   0.20020   102.19116
1394   0.07964   0.88562   -0.41926   0.20014   0.07964   0.88562   -0.41926   0.20014   102.28577
1395   0.07970   0.88592   -0.41905   0.19977   0.07970   0.88592   -0.41905   0.19977   102.22778
1396   0.07977   0.88543   -0.41929   0.20069   0.07977   0.88543   -0.41929   0.20069   102.15759
1397   0.07980   0.88540   -0.41957   0.20029   0.07980   0.88540   -0.41957   0.20029   102.19116
1398   0.07969   0.88583   -0.41896   0.20023   0.07969   0.88583   -0.41896   0.20023   102.27356
1399   0.07975   0.88586   -0.41893   0.19974   0.07975   0.88586   -0.41893   0.19974   102.23694
1400   0.07984   0.88565   -0.41935   0.20017   0.07984   0.88565   -0.41935   0.20017   102.13013
1401   0.07977   0.88580   -0.41881   0.20032   0.07977   0.88580   -0.41881   0.20032   102.21252
1402   0.07970   0.88589   -0.41899   0.20011   0.07970   0.88589   -0.41899   0.20011   102.29492
1403   0.07974   0.88583   -0.41899   0.19987   0.07974   0.88583   -0.41899   0.19987   102.22473
1404   0.07978   0.88595   -0.41874   0.20005   0.07978   0.88595   -0.41874   0.20005   102.14539
1405   0.07966   0.88580   -0.41859   0.20038   0.07966   0.88580   -0.41859   0.20038   102.23999
1406   0.07967   0.88525   -0.41987   0.20038   0.07967   0.88525   -0.41987   0.20038   102.22778
1407   0.07971   0.88568   -0.41920   0.20048   0.07971   0.88568   -0.41920   0.20048   102.18201
1408   0.07972   0.88614   -0.41850   0.19984   0.07972   0.88614   -0.41850   0.19984   102.21558
1409   0.07969   0.88604   -0.41862   0.19977   0.07969   0.88604   -0.41862   0.19977   102.23999
1410   0.07968   0.88543   -0.41960   0.20026   0.07968   0.88543   -0.41960   0.20026   102.24915
1411   0.07977   0.88522   -0.42003   0.20008   0.07977   0.88522   -0.42003   0.20008   102.17896
1412   0.07972   0.88568   -0.41917   0.20042   0.07972   0.88568   -0.41917   0.20042   102.20337
1413   0.07975   0.88601   -0.41856   0.20026   0.07975   0.88601   -0.41856   0.20026   102.23694
1414   0.07978   0.88531   -0.42003   0.19987   0.07978   0.88531   -0.42003   0.19987   102.22473
1415   0.07978   0.88623   -0.41765   0.20096   0.07978   0.88623   -0.41765   0.20096   102.20032
1416   0.07976   0.88562   -0.41929   0.20066   0.07976   0.88562   -0.41929   0.20066   102.26135
1417   0.07969   0.88601   -0.41850   0.20005   0.07969   0.88601   -0.41850   0.20005   102.23999
1418   0.07975   0.88534   -0.41987   0.20048   0.07975   0.88534   -0.41987   0.20048   102.19116
1419   0.07954   0.88586   -0.41853   0.20042   0.07954   0.88586   -0.41853   0.20042   102.22168
1420   0.07946   0.88589   -0.41905   0.19965   0.07946   0.88589   -0.41905   0.19965   102.27966
1421   0.07966   0.88586   -0.41850   0.20099   0.07966   0.88586   -0.41850   0.20099   102.21558
1422   0.07987   0.88549   -0.41960   0.20045   0.07987   0.88549   -0.41960   0.20045   102.11792
1423   0.07974   0.88546   -0.41939   0.20035   0.07974   0.88546   -0.41939   0.20035   102.22473
1424   0.07965   0.88571   -0.41908   0.20054   0.07965   0.88571   -0.41908   0.20054   102.31018
1425   0.07975   0.88592   -0.41920   0.19904   0.07975   0.88592   -0.41920   0.19904   102.23694
1426   0.07984   0.88607   -0.41832   0.19999   0.07984   0.88607   -0.41832   0.19999   102.15454
1427   0.07979   0.88589   -0.41884   0.19968   0.07979   0.88589   -0.41884   0.19968   102.22473
1428   0.07974   0.88565   -0.41997   0.19861   0.07974   0.88565   -0.41997   0.19861   102.28271
1429   0.07979   0.88549   -0.41966   0.19987   0.07979   0.88549   -0.41966   0.19987   102.21252
1430   0.07982   0.88546   -0.41954   0.20042   0.07982   0.88546   -0.41954   0.20042   102.13318
1431   0.07971   0.88546   -0.41957   0.20017   0.07971   0.88546   -0.41957   0.20017   102.23694
1432   0.07960   0.88626   -0.41810   0.19990   0.07960   0.88626   -0.41810   0.19990   102.29797
1433   0.07968   0.88580   -0.41896   0.19974   0.07968   0.88580   -0.41896   0.19974   102.20337
1434   0.07970   0.88580   -0.41859   0.20109   0.07970   0.88580   -0.41859   0.20109   102.16980
1435   0.07966   0.88565   -0.41939   0.19968   0.07966   0.88565   -0.41939   0.19968   102.28577
1436   0.07969   0.88559   -0.41945   0.20035   0.07969   0.88559   -0.41945   0.20035   102.22778
1437   0.07975   0.88586   -0.41865   0.20011   0.07975   0.88586   -0.41865   0.20011   102.17896
1438   0.07976   0.88577   -0.41935   0.19971   0.07976   0.88577   -0.41935   0.19971   102.21558
1439   0.07982   0.88562   -0.41920   0.20029   0.07982   0.88562   -0.41920   0.20029   102.29187
1440   0.07979   0.88601   -0.41871   0.20017   0.07979   0.88601   -0.41871   0.20017   102.19116
1441   0.07963   0.88586   -0.41859   0.20072   0.07963   0.88586   -0.41859   0.20072   102.20642
1442   0.07973   0.88543   -0.42009   0.19965   0.07973   0.88543   -0.42009   0.19965   102.23694
1443   0.07983   0.88586   -0.41908   0.19971   0.07983   0.88586   -0.41908   0.19971   102.27051
1444   0.07983   0.88607   -0.41838   0.20042   0.07983   0.88607   -0.41838   0.20042   102.22473
1445   0.07972   0.88592   -0.41871   0.20042   0.07972   0.88592   -0.41871   0.20042   102.20337
1446   0.07961   0.88586   -0.41914   0.19926   0.07961   0.88586   -0.41914   0.19926   102.23083
1447   0.07967   0.88528   -0.41997   0.20029   0.07967   0.88528   -0.41997   0.20029   102.25220
1448   0.07978   0.88501   -0.42021   0.20112   0.07978   0.88501   -0.42021   0.20112   102.16675
1449   0.07967   0.88553   -0.41920   0.20060   0.07967   0.88553   -0.41920   0.20060   102.22778
1450   0.07966   0.88580   -0.41908   0.20020   0.07966   0.88580   -0.41908   0.20020   102.22778
1451   0.07971   0.88559   -0.41899   0.20069   0.07971   0.88559   -0.41899   0.20069   102.18201
1452   0.07975   0.88589   -0.41865   0.20020   0.07975   0.88589   -0.41865   0.20020   102.16980
1453   0.07975   0.88565   -0.41929   0.19968   0.07975   0.88565   -0.41929   0.19968   102.28271
1454   0.07972   0.88565   -0.41951   0.19947   0.07972   0.88565   -0.41951   0.19947   102.27356
1455   0.07990   0.88604   -0.41810   0.20057   0.07990   0.88604   -0.41810   0.20057   102.13013
1456   0.07988   0.88595   -0.41835   0.20063   0.07988   0.88595   -0.41835   0.20063   102.17590
1457   0.07947   0.88607   -0.41832   0.20008   0.07947   0.88607   -0.41832   0.20008   102.26746
1458   0.07954   0.88601   -0.41868   0.19965   0.07954   0.88601   -0.41868   0.19965   102.24304
1459   0.07987   0.88562   -0.41896   0.20093   0.07987   0.88562   -0.41896   0.20093   102.11792
1460   0.07966   0.88553   -0.41945   0.20008   0.07966   0.88553   -0.41945   0.20008   102.20642
1461   0.07951   0.88562   -0.41951   0.19953   0.07951   0.88562   -0.41951   0.19953   102.26746
1462   0.07959   0.88559   -0.41960   0.19965   0.07959   0.88559   -0.41960   0.19965   102.24304
1463   0.07979   0.88562   -0.41942   0.20005   0.07979   0.88562   -0.41942   0.20005   102.13318
1464   0.07972   0.88617   -0.41847   0.20005   0.07972   0.88617   -0.41847   0.20005   102.20337
1465   0.07961   0.88571   -0.41920   0.20008   0.07961   0.88571   -0.41920   0.20008   102.27661
1466   0.07970   0.88586   -0.41862   0.20072   0.07970   0.88586   -0.41862   0.20072   102.21558
1467   0.07978   0.88513   -0.42048   0.19965   0.07978   0.88513   -0.42048   0.19965   102.15454
1468   0.07974   0.88559   -0.41957   0.19987   0.07974   0.88559   -0.41957   0.19987   102.22473
1469   0.07966   0.88577   -0.41911   0.20032   0.07966   0.88577   -0.41911   0.20032   102.22778
1470   0.07976   0.88601   -0.41832   0.20008   0.07976   0.88601   -0.41832   0.20008   102.17896
1471   0.07975   0.88629   -0.41856   0.19880   0.07975   0.88629   -0.41856   0.19880   102.19116
1472   0.07970   0.88583   -0.41920   0.19962   0.07970   0.88583   -0.41920   0.19962   102.22778
1473   0.07962   0.88614   -0.41850   0.19962   0.07962   0.88614   -0.41850   0.19962   102.21863
1474   0.07964   0.88607   -0.41816   0.20063   0.07964   0.88607   -0.41816   0.20063   102.20642
1475   0.07969   0.88598   -0.41832   0.20081   0.07969   0.88598   -0.41832   0.20081   102.21558
1476   0.07964   0.88598   -0.41804   0.20118   0.07964   0.88598   -0.41804   0.20118   102.22778
1477   0.07967   0.88531   -0.42000   0.20042   0.07967   0.88531   -0.42000   0.20042   102.20337
1478   0.07973   0.88540   -0.41987   0.19974   0.07973   0.88540   -0.41987   0.19974   102.16980
1479   0.07968   0.88568   -0.41917   0.20057   0.07968   0.88568   -0.41917   0.20057   102.24915
1480   0.07968   0.88577   -0.41908   0.19984   0.07968   0.88577   -0.41908   0.19984   102.26135
1481   0.07977   0.88589   -0.41890   0.20008   0.07977   0.88589   -0.41890   0.20008   102.19116
1482   0.07974   0.88559   -0.41960   0.19977   0.07974   0.88559   -0.41960   0.19977   102.23694
1483   0.07971   0.88610   -0.41850   0.19993   0.07971   0.88610   -0.41850   0.19993   102.24915
1484   0.07971   0.88604   -0.41823   0.20051   0.07971   0.88604   -0.41823   0.20051   102.24915
1485   0.07978   0.88559   -0.41932   0.20066   0.07978   0.88559   -0.41932   0.20066   102.12097
1486   0.07968   0.88620   -0.41850   0.19965   0.07968   0.88620   -0.41850   0.19965   102.21558
1487   0.07958   0.88598   -0.41902   0.19901   0.07958   0.88598   -0.41902   0.19901   102.27661
1488   0.07965   0.88568   -0.41859   0.20099   0.07965   0.88568   -0.41859   0.20099   102.22778
1489   0.07970   0.88595   -0.41829   0.20048   0.07970   0.88595   -0.41829   0.20048   102.16980
1490   0.07964   0.88617   -0.41820   0.19990   0.07964   0.88617   -0.41820   0.19990   102.26440
1491   0.07966   0.88626   -0.41804   0.19980   0.07966   0.88626   -0.41804   0.19980   102.28577
1492   0.07974   0.88601   -0.41868   0.19977   0.07974   0.88601   -0.41868   0.19977   102.16980
1493   0.07976   0.88604   -0.41829   0.20057   0.07976   0.88604   -0.41829   0.20057   102.15759
1494   0.07966   0.88592   -0.41893   0.19990   0.07966   0.88592   -0.41893   0.19990   102.27356
1495   0.07969   0.88571   -0.41890   0.20060   0.07969   0.88571   -0.41890   0.20060   102.27356
1496   0.07979   0.88571   -0.41914   0.20038   0.07979   0.88571   -0.41914   0.20038   102.14539
1497   0.07978   0.88653   -0.41774   0.19984   0.07978   0.88653   -0.41774   0.19984   102.14539
1498   0.07969   0.88623   -0.41765   0.20057   0.07969   0.88623   -0.41765   0.20057   102.28577
1499   0.07965   0.88580   -0.41905   0.19999   0.07965   0.88580   -0.41905   0.19999   102.28577
1500   0.07973   0.88632   -0.41823   0.19953   0.07973   0.88632   -0.41823   0.19953   102.15759
1501   0.07964   0.88586   -0.41917   0.19941   0.07964   0.88586   -0.41917   0.19941   102.19421
1502   0.07966   0.88626   -0.41859   0.19913   0.07966   0.88626   -0.41859   0.19913   102.26135
1503   0.07964   0.88586   -0.41850   0.20093   0.07964   0.88586   -0.41850   0.20093   102.23999
1504   0.07976   0.88589   -0.41896   0.19999   0.07976   0.88589   -0.41896   0.19999   102.16675
1505   0.07969   0.88604   -0.41862   0.19990   0.07969   0.88604   -0.41862   0.19990   102.23999
1506   0.07966   0.88568   -0.41957   0.19935   0.07966   0.88568   -0.41957   0.19935   102.27356
1507   0.07972   0.88601   -0.41884   0.19941   0.07972   0.88601   -0.41884   0.19941   102.20337
1508   0.07976   0.88623   -0.41789   0.20035   0.07976   0.88623   -0.41789   0.20035   102.15759
1509   0.07973   0.88601   -0.41893   0.19962   0.07973   0.88601   -0.41893   0.19962   102.26135
1510   0.07971   0.88614   -0.41832   0.20045   0.07971   0.88614   -0.41832   0.20045   102.20337
1511   0.07974   0.88589   -0.41862   0.20002   0.07974   0.88589   -0.41862   0.20002   102.21558
1512   0.07973   0.88623   -0.41844   0.19898   0.07973   0.88623   -0.41844   0.19898   102.22778
1513   0.07966   0.88647   -0.41783   0.19950   0.07966   0.88647   -0.41783   0.19950   102.26135
1514   0.07966   0.88653   -0.41734   0.20017   0.07966   0.88653   -0.41734   0.20017   102.19421
1515   0.07966   0.88678   -0.41743   0.19926   0.07966   0.88678   -0.41743   0.19926   102.16980
1516   0.07966   0.88662   -0.41771   0.19883   0.07966   0.88662   -0.41771   0.19883   102.26135
1517   0.07963   0.88620   -0.41838   0.19965   0.07963   0.88620   -0.41838   0.19965   102.23999
1518   0.07974   0.88623   -0.41829   0.19990   0.07974   0.88623   -0.41829   0.19990   102.14539
1519   0.07976   0.88638   -0.41755   0.20023   0.07976   0.88638   -0.41755   0.20023   102.17896
1520   0.07980   0.88638   -0.41795   0.19959   0.07980   0.88638   -0.41795   0.19959   102.22473
1521   0.07977   0.88629   -0.41792   0.19987   0.07977   0.88629   -0.41792   0.19987   102.23694
1522   0.07974   0.88656   -0.41700   0.20124   0.07974   0.88656   -0.41700   0.20124   102.15759
1523   0.07973   0.88586   -0.41911   0.19941   0.07973   0.88586   -0.41911   0.19941   102.23694
1524   0.07974   0.88656   -0.41734   0.20017   0.07974   0.88656   -0.41734   0.20017   102.30713
1525   0.07973   0.88617   -0.41792   0.20075   0.07973   0.88617   -0.41792   0.20075   102.21558
1526   0.07973   0.88653   -0.41725   0.20069   0.07973   0.88653   -0.41725   0.20069   102.14539
1527   0.07966   0.88668   -0.41664   0.20093   0.07966   0.88668   -0.41664   0.20093   102.19421
1528   0.07954   0.88656   -0.41755   0.19959   0.07954   0.88656   -0.41755   0.19959   102.27661
1529   0.07966   0.88635   -0.41768   0.20005   0.07966   0.88635   -0.41768   0.20005   102.22778
1530   0.07970   0.88635   -0.41774   0.20002   0.07970   0.88635   -0.41774   0.20002   102.14539
1531   0.07967   0.88638   -0.41783   0.19977   0.07967   0.88638   -0.41783   0.19977   102.20337
1532   0.07961   0.88617   -0.41798   0.20054   0.07961   0.88617   -0.41798   0.20054   102.29797
1533   0.07970   0.88647   -0.41682   0.20148   0.07970   0.88647   -0.41682   0.20148   102.16980
1534   0.07976   0.88668   -0.41691   0.20051   0.07976   0.88668   -0.41691   0.20051   102.14539
1535   0.07970   0.88635   -0.41734   0.20078   0.07970   0.88635   -0.41734   0.20078   102.26135
1536   0.07971   0.88662   -0.41743   0.19996   0.07971   0.88662   -0.41743   0.19996   102.22778
1537   0.07976   0.88659   -0.41746   0.19977   0.07976   0.88659   -0.41746   0.19977   102.19116
1538   0.07972   0.88656   -0.41755   0.19956   0.07972   0.88656   -0.41755   0.19956   102.19116
1539   0.07944   0.88626   -0.41807   0.19977   0.07944   0.88626   -0.41807   0.19977   102.22168
1540   0.07957   0.88638   -0.41762   0.20035   0.07957   0.88638   -0.41762   0.20035   102.20642
1541   0.07978   0.88638   -0.41768   0.20035   0.07978   0.88638   -0.41768   0.20035   102.17896
1542   0.07966   0.88650   -0.41786   0.19950   0.07966   0.88650   -0.41786   0.19950   102.21558
1543   0.07958   0.88632   -0.41813   0.19944   0.07958   0.88632   -0.41813   0.19944   102.23083
1544   0.07962   0.88687   -0.41673   0.19990   0.07962   0.88687   -0.41673   0.19990   102.17285
1545   0.07969   0.88675   -0.41725   0.19929   0.07969   0.88675   -0.41725   0.19929   102.20337
1546   0.07968   0.88702   -0.41667   0.19962   0.07968   0.88702   -0.41667   0.19962   102.24915
1547   0.07966   0.88635   -0.41768   0.20005   0.07966   0.88635   -0.41768   0.20005   102.21558
1548   0.07970   0.88684   -0.41682   0.20023   0.07970   0.88684   -0.41682   0.20023   102.13623
1549   0.07970   0.88641   -0.41774   0.19984   0.07970   0.88641   -0.41774   0.19984   102.21558
1550   0.07969   0.88626   -0.41798   0.19987   0.07969   0.88626   -0.41798   0.19987   102.27356
1551   0.07974   0.88623   -0.41810   0.20020   0.07974   0.88623   -0.41810   0.20020   102.16980
1552   0.07978   0.88672   -0.41700   0.20026   0.07978   0.88672   -0.41700   0.20026   102.14539
1553   0.07971   0.88675   -0.41731   0.19959   0.07971   0.88675   -0.41731   0.19959   102.23694
1554   0.07964   0.88644   -0.41783   0.20002   0.07964   0.88644   -0.41783   0.20002   102.27356
1555   0.07977   0.88623   -0.41771   0.20081   0.07977   0.88623   -0.41771   0.20081   102.16675
1556   0.07975   0.88690   -0.41652   0.20060   0.07975   0.88690   -0.41652   0.20060   102.13318
1557   0.07964   0.88653   -0.41725   0.20054   0.07964   0.88653   -0.41725   0.20054   102.26440
1558   0.07959   0.88684   -0.41679   0.20032   0.07959   0.88684   -0.41679   0.20032   102.26440
1559   0.07983   0.88641   -0.41731   0.20026   0.07983   0.88641   -0.41731   0.20026   102.16675
1560   0.07979   0.88635   -0.41789   0.19990   0.07979   0.88635   -0.41789   0.19990   102.17896
1561   0.07971   0.88662   -0.41740   0.20005   0.07971   0.88662   -0.41740   0.20005   102.26135
1562   0.07973   0.88665   -0.41682   0.20078   0.07973   0.88665   -0.41682   0.20078   102.23694
1563   0.07979   0.88672   -0.41734   0.19916   0.07979   0.88672   -0.41734   0.19916   102.16675
1564   0.07978   0.88733   -0.41600   0.19993   0.07978   0.88733   -0.41600   0.19993   102.16675
1565   0.07973   0.88681   -0.41704   0.19974   0.07973   0.88681   -0.41704   0.19974   102.24915
1566   0.07975   0.88656   -0.41664   0.20121   0.07975   0.88656   -0.41664   0.20121   102.20337
1567   0.07980   0.88690   -0.41664   0.20017   0.07980   0.88690   -0.41664   0.20017   102.10876
1568   0.07971   0.88644   -0.41719   0.20081   0.07971   0.88644   -0.41719   0.20081   102.18201
1569   0.07958   0.88653   -0.41716   0.20023   0.07958   0.88653   -0.41716   0.20023   102.27661
1570   0.07966   0.88708   -0.41603   0.20066   0.07966   0.88708   -0.41603   0.20066   102.19421
1571   0.07972   0.88665   -0.41679   0.20115   0.07972   0.88665   -0.41679   0.20115   102.13318
1572   0.07967   0.88641   -0.41740   0.20069   0.07967   0.88641   -0.41740   0.20069   102.21558
1573   0.07969   0.88668   -0.41710   0.20017   0.07969   0.88668   -0.41710   0.20017   102.20337
1574   0.07976   0.88644   -0.41697   0.20118   0.07976   0.88644   -0.41697   0.20118   102.16675
1575   0.07974   0.88665   -0.41697   0.20060   0.07974   0.88665   -0.41697   0.20060   102.14539
1576   0.07970   0.88687   -0.41685   0.19965   0.07970   0.88687   -0.41685   0.19965   102.23999
1577   0.07978   0.88675   -0.41691   0.20020   0.07978   0.88675   -0.41691   0.20020   102.19116
1578   0.07978   0.88641   -0.41749   0.20035   0.07978   0.88641   -0.41749   0.20035   102.15454
1579   0.07975   0.88656   -0.41716   0.20054   0.07975   0.88656   -0.41716   0.20054   102.17896
1580   0.07974   0.88632   -0.41810   0.19977   0.07974   0.88632   -0.41810   0.19977   102.23694
1581   0.07973   0.88705   -0.41581   0.20109   0.07973   0.88705   -0.41581   0.20109   102.16980
1582   0.07974   0.88632   -0.41783   0.19999   0.07974   0.88632   -0.41783   0.19999   102.17896
1583   0.07962   0.88650   -0.41789   0.19922   0.07962   0.88650   -0.41789   0.19922   102.23083
1584   0.07965   0.88629   -0.41804   0.20011   0.07965   0.88629   -0.41804   0.20011   102.23999
1585   0.07970   0.88699   -0.41597   0.20087   0.07970   0.88699   -0.41597   0.20087   102.14539
1586   0.07967   0.88754   -0.41554   0.19941   0.07967   0.88754   -0.41554   0.19941   102.19421
1587   0.07966   0.88662   -0.41734   0.19987   0.07966   0.88662   -0.41734   0.19987   102.25220
1588   0.07971   0.88699   -0.41639   0.20014   0.07971   0.88699   -0.41639   0.20014   102.20337
1589   0.07979   0.88702   -0.41658   0.20011   0.07979   0.88702   -0.41658   0.20011   102.07520
1590   0.07973   0.88690   -0.41667   0.19999   0.07973   0.88690   -0.41667   0.19999   102.17896
1591   0.07968   0.88726   -0.41624   0.19953   0.07968   0.88726   -0.41624   0.19953   102.26135
1592   0.07975   0.88711   -0.41627   0.19996   0.07975   0.88711   -0.41627   0.19996   102.17896
1593   0.07983   0.88678   -0.41639   0.20087   0.07983   0.88678   -0.41639   0.20087   102.14233
1594   0.07973   0.88702   -0.41649   0.19993   0.07973   0.88702   -0.41649   0.19993   102.21558
1595   0.07965   0.88699   -0.41713   0.19864   0.07965   0.88699   -0.41713   0.19864   102.26440
1596   0.07972   0.88656   -0.41719   0.20045   0.07972   0.88656   -0.41719   0.20045   102.18201
1597   0.07968   0.88687   -0.41661   0.20023   0.07968   0.88687   -0.41661   0.20023   102.16980
1598   0.07969   0.88668   -0.41722   0.19965   0.07969   0.88668   -0.41722   0.19965   102.26135
1599   0.07962   0.88717   -0.41572   0.20069   0.07962   0.88717   -0.41572   0.20069   102.26440
1600   0.07975   0.88659   -0.41700   0.20057   0.07975   0.88659   -0.41700   0.20057   102.15759
1601   0.07974   0.88714   -0.41606   0.20060   0.07974   0.88714   -0.41606   0.20060   102.14539
1602   0.07972   0.88653   -0.41768   0.19971   0.07972   0.88653   -0.41768   0.19971   102.23694
1603   0.07969   0.88705   -0.41612   0.20038   0.07969   0.88705   -0.41612   0.20038   102.24915
1604   0.07979   0.88672   -0.41719   0.19993   0.07979   0.88672   -0.41719   0.19993   102.14539
1605   0.07976   0.88659   -0.41731   0.20038   0.07976   0.88659   -0.41731   0.20038   102.16675
1606   0.07973   0.88662   -0.41707   0.20017   0.07973   0.88662   -0.41707   0.20017   102.24915
1607   0.07977   0.88684   -0.41597   0.20148   0.07977   0.88684   -0.41597   0.20148   102.19116
1608   0.07977   0.88675   -0.41679   0.20060   0.07977   0.88675   -0.41679   0.20060   102.15759
1609   0.07971   0.88702   -0.41633   0.20054   0.07971   0.88702   -0.41633   0.20054   102.21558
1610   0.07961   0.88693   -0.41636   0.20051   0.07961   0.88693   -0.41636   0.20051   102.25220
1611   0.07969   0.88672   -0.41691   0.20042   0.07969   0.88672   -0.41691   0.20042   102.16980
1612   0.07973   0.88659   -0.41752   0.19944   0.07973   0.88659   -0.41752   0.19944   102.20337
1613   0.07968   0.88668   -0.41694   0.20011   0.07968   0.88668   -0.41694   0.20011   102.20337
1614   0.07969   0.88693   -0.41664   0.20029   0.07969   0.88693   -0.41664   0.20029   102.20337
1615   0.07976   0.88653   -0.41740   0.20032   0.07976   0.88653   -0.41740   0.20032   102.16675
1616   0.07973   0.88687   -0.41633   0.20093   0.07973   0.88687   -0.41633   0.20093   102.17896
1617   0.07972   0.88684   -0.41673   0.20002   0.07972   0.88684   -0.41673   0.20002   102.22778
1618   0.07975   0.88626   -0.41746   0.20093   0.07975   0.88626   -0.41746   0.20093   102.21558
1619   0.07965   0.88690   -0.41682   0.20017   0.07965   0.88690   -0.41682   0.20017   102.14844
1620   0.07957   0.88687   -0.41685   0.19974   0.07957   0.88687   -0.41685   0.19974   102.23083
1621   0.07973   0.88626   -0.41777   0.20023   0.07973   0.88626   -0.41777   0.20023   102.27356
1622   0.07981   0.88650   -0.41682   0.20103   0.07981   0.88650   -0.41682   0.20103   102.16675
1623   0.07975   0.88653   -0.41725   0.20042   0.07975   0.88653   -0.41725   0.20042   102.16980
1624   0.07957   0.88705   -0.41612   0.20060   0.07957   0.88705   -0.41612   0.20060   102.23083
1625   0.07963   0.88659   -0.41737   0.20005   0.07963   0.88659   -0.41737   0.20005   102.26440
1626   0.07978   0.88702   -0.41636   0.20008   0.07978   0.88702   -0.41636   0.20008   102.14539
1627   0.07978   0.88672   -0.41697   0.20045   0.07978   0.88672   -0.41697   0.20045   102.16675
1628   0.07972   0.88653   -0.41786   0.19926   0.07972   0.88653   -0.41786   0.19926   102.26135
1629   0.07968   0.88656   -0.41737   0.19974   0.07968   0.88656   -0.41737   0.19974   102.26135
1630   0.07984   0.88687   -0.41682   0.20008   0.07984   0.88687   -0.41682   0.20008   102.09656
1631   0.07985   0.88702   -0.41697   0.19889   0.07985   0.88702   -0.41697   0.19889   102.15454
1632   0.07970   0.88714   -0.41633   0.19956   0.07970   0.88714   -0.41633   0.19956   102.26135
1633   0.07971   0.88708   -0.41643   0.20002   0.07971   0.88708   -0.41643   0.20002   102.23694
1634   0.07983   0.88678   -0.41652   0.20127   0.07983   0.88678   -0.41652   0.20127   102.13318
1635   0.07982   0.88678   -0.41710   0.19974   0.07982   0.88678   -0.41710   0.19974   102.15454
1636   0.07967   0.88656   -0.41685   0.20109   0.07967   0.88656   -0.41685   0.20109   102.23999
1637   0.07974   0.88681   -0.41643   0.20115   0.07974   0.88681   -0.41643   0.20115   102.16980
1638   0.07975   0.88681   -0.41676   0.20020   0.07975   0.88681   -0.41676   0.20020   102.15759
1639   0.07984   0.88684   -0.41652   0.20087   0.07984   0.88684   -0.41652   0.20087   102.20032
1640   0.07971   0.88656   -0.41664   0.20164   0.07971   0.88656   -0.41664   0.20164   102.20337
1641   0.07962   0.88675   -0.41661   0.20057   0.07962   0.88675   -0.41661   0.20057   102.19421
1642   0.07975   0.88696   -0.41630   0.20038   0.07975   0.88696   -0.41630   0.20038   102.13318
1643   0.07981   0.88742   -0.41578   0.19965   0.07981   0.88742   -0.41578   0.19965   102.21252
1644   0.07984   0.88714   -0.41658   0.19956   0.07984   0.88714   -0.41658   0.19956   102.21252
1645   0.07982   0.88665   -0.41682   0.20087   0.07982   0.88665   -0.41682   0.20087   102.15454
1646   0.07981   0.88717   -0.41572   0.20063   0.07981   0.88717   -0.41572   0.20063   102.18811
1647   0.07972   0.88659   -0.41694   0.20075   0.07972   0.88659   -0.41694   0.20075   102.21558
1648   0.07983   0.88720   -0.41603   0.20042   0.07983   0.88720   -0.41603   0.20042   102.17896
1649   0.07980   0.88705   -0.41572   0.20124   0.07980   0.88705   -0.41572   0.20124   102.17896
1650   0.07973   0.88708   -0.41679   0.19929   0.07973   0.88708   -0.41679   0.19929   102.22778
1651   0.07967   0.88736   -0.41563   0.20051   0.07967   0.88736   -0.41563   0.20051   102.23999
1652   0.07973   0.88714   -0.41581   0.20048   0.07973   0.88714   -0.41581   0.20048   102.12402
1653   0.07974   0.88745   -0.41539   0.19996   0.07974   0.88745   -0.41539   0.19996   102.19116
1654   0.07964   0.88711   -0.41627   0.19993   0.07964   0.88711   -0.41627   0.19993   102.27356
1655   0.07981   0.88684   -0.41661   0.20048   0.07981   0.88684   -0.41661   0.20048   102.18811
1656   0.07986   0.88668   -0.41713   0.20029   0.07986   0.88668   -0.41713   0.20029   102.13013
1657   0.07956   0.88684   -0.41688   0.20008   0.07956   0.88684   -0.41688   0.20008   102.20642
1658   0.07956   0.88711   -0.41636   0.19993   0.07956   0.88711   -0.41636   0.19993   102.26440
1659   0.07984   0.88711   -0.41615   0.20035   0.07984   0.88711   -0.41615   0.20035   102.15454
1660   0.07979   0.88675   -0.41658   0.20090   0.07979   0.88675   -0.41658   0.20090   102.17896
1661   0.07965   0.88681   -0.41704   0.19941   0.07965   0.88681   -0.41704   0.19941   102.22778
1662   0.07968   0.88711   -0.41600   0.20051   0.07968   0.88711   -0.41600   0.20051   102.28577
1663   0.07977   0.88705   -0.41649   0.20002   0.07977   0.88705   -0.41649   0.20002   102.15759
1664   0.07974   0.88717   -0.41575   0.20063   0.07974   0.88717   -0.41575   0.20063   102.12402
1665   0.07958   0.88717   -0.41630   0.20005   0.07958   0.88717   -0.41630   0.20005   102.25220
1666   0.07958   0.88705   -0.41639   0.20011   0.07958   0.88705   -0.41639   0.20011   102.27661
1667   0.07970   0.88681   -0.41652   0.20048   0.07970   0.88681   -0.41652   0.20048   102.16980
1668   0.07972   0.88742   -0.41578   0.19932   0.07972   0.88742   -0.41578   0.19932   102.20337
1669   0.07965   0.88702   -0.41639   0.20011   0.07965   0.88702   -0.41639   0.20011   102.23999
1670   0.07965   0.88702   -0.41600   0.20109   0.07965   0.88702   -0.41600   0.20109   102.26440
1671   0.07978   0.88699   -0.41585   0.20133   0.07978   0.88699   -0.41585   0.20133   102.12097
1672   0.07978   0.88717   -0.41578   0.20072   0.07978   0.88717   -0.41578   0.20072   102.15454
1673   0.07971   0.88711   -0.41636   0.20005   0.07971   0.88711   -0.41636   0.20005   102.26135
1674   0.07974   0.88659   -0.41710   0.20066   0.07974   0.88659   -0.41710   0.20066   102.20337
1675   0.07983   0.88717   -0.41633   0.19953   0.07983   0.88717   -0.41633   0.19953   102.13318
1676   0.07978   0.88720   -0.41575   0.20075   0.07978   0.88720   -0.41575   0.20075   102.17896
1677   0.07967   0.88696   -0.41661   0.20005   0.07967   0.88696   -0.41661   0.20005   102.25220
1678   0.07972   0.88714   -0.41588   0.20115   0.07972   0.88714   -0.41588   0.20115   102.18201
1679   0.07966   0.88702   -0.41578   0.20127   0.07966   0.88702   -0.41578   0.20127   102.16980
1680   0.07970   0.88702   -0.41609   0.20057   0.07970   0.88702   -0.41609   0.20057   102.14539
1681   0.07969   0.88690   -0.41652   0.20060   0.07969   0.88690   -0.41652   0.20060   102.20337
1682   0.07973   0.88693   -0.41609   0.20124   0.07973   0.88693   -0.41609   0.20124   102.16980
1683   0.07972   0.88607   -0.41801   0.20081   0.07972   0.88607   -0.41801   0.20081   102.22778
1684   0.07972   0.88650   -0.41700   0.20121   0.07972   0.88650   -0.41700   0.20121   102.24915
1685   0.07972   0.88626   -0.41768   0.20084   0.07972   0.88626   -0.41768   0.20084   102.20337
1686   0.07977   0.88696   -0.41655   0.20026   0.07977   0.88696   -0.41655   0.20026   102.15759
1687   0.07976   0.88699   -0.41615   0.20118   0.07976   0.88699   -0.41615   0.20118   102.17896
1688   0.07973   0.88662   -0.41704   0.20078   0.07973   0.88662   -0.41704   0.20078   102.22778
1689   0.07979   0.88717   -0.41600   0.20060   0.07979   0.88717   -0.41600   0.20060   102.13318
1690   0.07977   0.88684   -0.41658   0.20048   0.07977   0.88684   -0.41658   0.20048   102.14539
1691   0.07971   0.88687   -0.41655   0.20005   0.07971   0.88687   -0.41655   0.20005   102.21558
1692   0.07963   0.88696   -0.41594   0.20115   0.07963   0.88696   -0.41594   0.20115   102.23999
1693   0.07967   0.88705   -0.41575   0.20106   0.07967   0.88705   -0.41575   0.20106   102.13623
1694   0.07973   0.88736   -0.41548   0.20072   0.07973   0.88736   -0.41548   0.20072   102.15759
1695   0.07970   0.88720   -0.41600   0.19990   0.07970   0.88720   -0.41600   0.19990   102.21558
1696   0.07969   0.88751   -0.41533   0.19993   0.07969   0.88751   -0.41533   0.19993   102.21558
1697   0.07978   0.88711   -0.41578   0.20045   0.07978   0.88711   -0.41578   0.20045   102.13318
1698   0.07976   0.88784   -0.41441   0.20060   0.07976   0.88784   -0.41441   0.20060   102.16675
1699   0.07968   0.88708   -0.41624   0.19996   0.07968   0.88708   -0.41624   0.19996   102.26135
1700   0.07975   0.88687   -0.41661   0.20017   0.07975   0.88687   -0.41661   0.20017   102.22473
1701   0.07984   0.88769   -0.41456   0.20075   0.07984   0.88769   -0.41456   0.20075   102.10876
1702   0.07978   0.88730   -0.41581   0.20002   0.07978   0.88730   -0.41581   0.20002   102.20337
1703   0.07973   0.88766   -0.41447   0.20115   0.07973   0.88766   -0.41447   0.20115   102.26135
1704   0.07975   0.88705   -0.41609   0.20023   0.07975   0.88705   -0.41609   0.20023   102.22473
1705   0.07978   0.88681   -0.41694   0.19974   0.07978   0.88681   -0.41694   0.19974   102.14539
1706   0.07966   0.88748   -0.41545   0.20017   0.07966   0.88748   -0.41545   0.20017   102.18201
1707   0.07963   0.88766   -0.41514   0.19999   0.07963   0.88766   -0.41514   0.19999   102.28577
1708   0.07972   0.88748   -0.41536   0.20026   0.07972   0.88748   -0.41536   0.20026   102.19116
1709   0.07973   0.88711   -0.41615   0.20008   0.07973   0.88711   -0.41615   0.20008   102.15759
1710   0.07970   0.88754   -0.41517   0.19999   0.07970   0.88754   -0.41517   0.19999   102.19116
1711   0.07971   0.88717   -0.41597   0.20029   0.07971   0.88717   -0.41597   0.20029   102.23694
1712   0.07977   0.88681   -0.41618   0.20136   0.07977   0.88681   -0.41618   0.20136   102.17896
1713   0.07978   0.88720   -0.41597   0.20023   0.07978   0.88720   -0.41597   0.20023   102.13318
1714   0.07974   0.88714   -0.41585   0.20035   0.07974   0.88714   -0.41585   0.20035   102.21558
1715   0.07974   0.88751   -0.41563   0.19990   0.07974   0.88751   -0.41563   0.19990   102.17896
1716   0.07975   0.88708   -0.41575   0.20127   0.07975   0.88708   -0.41575   0.20127   102.16980
1717   0.07980   0.88742   -0.41581   0.19956   0.07980   0.88742   -0.41581   0.19956   102.19116
1718   0.07969   0.88748   -0.41514   0.20054   0.07969   0.88748   -0.41514   0.20054   102.23999
1719   0.07976   0.88656   -0.41697   0.20057   0.07976   0.88656   -0.41697   0.20057   102.19116
1720   0.07978   0.88690   -0.41661   0.20014   0.07978   0.88690   -0.41661   0.20014   102.17896
1721   0.07974   0.88672   -0.41719   0.19956   0.07974   0.88672   -0.41719   0.19956   102.22473
1722   0.07965   0.88705   -0.41673   0.19941   0.07965   0.88705   -0.41673   0.19941   102.22778
1723   0.07974   0.88687   -0.41618   0.20130   0.07974   0.88687   -0.41618   0.20130   102.15759
1724   0.07975   0.88699   -0.41673   0.19950   0.07975   0.88699   -0.41673   0.19950   102.20337
1725   0.07966   0.88705   -0.41630   0.20072   0.07966   0.88705   -0.41630   0.20072   102.25220
1726   0.07971   0.88748   -0.41554   0.20023   0.07971   0.88748   -0.41554   0.20023   102.18201
1727   0.07977   0.88723   -0.41581   0.20042   0.07977   0.88723   -0.41581   0.20042   102.13318
1728   0.07977   0.88696   -0.41633   0.20023   0.07977   0.88696   -0.41633   0.20023   102.21252
1729   0.07968   0.88723   -0.41575   0.20008   0.07968   0.88723   -0.41575   0.20008   102.27356
1730   0.07978   0.88733   -0.41530   0.20084   0.07978   0.88733   -0.41530   0.20084   102.16675
1731   0.07982   0.88754   -0.41508   0.20038   0.07982   0.88754   -0.41508   0.20038   102.13318
1732   0.07970   0.88769   -0.41496   0.19990   0.07970   0.88769   -0.41496   0.19990   102.21558
1733   0.07963   0.88745   -0.41591   0.19938   0.07963   0.88745   -0.41591   0.19938   102.26440
1734   0.07966   0.88711   -0.41551   0.20151   0.07966   0.88711   -0.41551   0.20151   102.14844
1735   0.07973   0.88699   -0.41664   0.20005   0.07973   0.88699   -0.41664   0.20005   102.13318
1736   0.07966   0.88751   -0.41536   0.19987   0.07966   0.88751   -0.41536   0.19987   102.23999
1737   0.07966   0.88720   -0.41569   0.20060   0.07966   0.88720   -0.41569   0.20060   102.23999
1738   0.07964   0.88733   -0.41533   0.20090   0.07964   0.88733   -0.41533   0.20090   102.13623
1739   0.07949   0.88739   -0.41533   0.20063   0.07949   0.88739   -0.41533   0.20063   102.14233
1740   0.07960   0.88708   -0.41585   0.20045   0.07960   0.88708   -0.41585   0.20045   102.26440
1741   0.07980   0.88653   -0.41704   0.20118   0.07980   0.88653   -0.41704   0.20118   102.23694
1742   0.07983   0.88690   -0.41639   0.20121   0.07983   0.88690   -0.41639   0.20121   102.10876
1743   0.07963   0.88714   -0.41566   0.20078   0.07963   0.88714   -0.41566   0.20078   102.18201
1744   0.07965   0.88711   -0.41624   0.20032   0.07965   0.88711   -0.41624   0.20032   102.25220
1745   0.07970   0.88723   -0.41578   0.20035   0.07970   0.88723   -0.41578   0.20035   102.20337
1746   0.07976   0.88726   -0.41578   0.20035   0.07976   0.88726   -0.41578   0.20035   102.13318
1747   0.07965   0.88705   -0.41606   0.20099   0.07965   0.88705   -0.41606   0.20099   102.18201
1748   0.07958   0.88711   -0.41585   0.20051   0.07958   0.88711   -0.41585   0.20051   102.27661
1749   0.07967   0.88702   -0.41624   0.20057   0.07967   0.88702   -0.41624   0.20057   102.18201
1750   0.07970   0.88760   -0.41527   0.19990   0.07970   0.88760   -0.41527   0.19990   102.16980
1751   0.07968   0.88711   -0.41606   0.20035   0.07968   0.88711   -0.41606   0.20035   102.22778
1752   0.07972   0.88720   -0.41581   0.20017   0.07972   0.88720   -0.41581   0.20017   102.20337
1753   0.07974   0.88720   -0.41545   0.20121   0.07974   0.88720   -0.41545   0.20121   102.16980
1754   0.07975   0.88723   -0.41606   0.20029   0.07975   0.88723   -0.41606   0.20029   102.20337
1755   0.07981   0.88690   -0.41670   0.19971   0.07981   0.88690   -0.41670   0.19971   102.22473
1756   0.07983   0.88702   -0.41618   0.20060   0.07983   0.88702   -0.41618   0.20060   102.18811
1757   0.07982   0.88736   -0.41536   0.20084   0.07982   0.88736   -0.41536   0.20084   102.17896
1758   0.07975   0.88742   -0.41557   0.19984   0.07975   0.88742   -0.41557   0.19984   102.21558
1759   0.07976   0.88736   -0.41566   0.20051   0.07976   0.88736   -0.41566   0.20051   102.23694
1760   0.07984   0.88711   -0.41615   0.20035   0.07984   0.88711   -0.41615   0.20035   102.15454
1761   0.07972   0.88656   -0.41731   0.20017   0.07972   0.88656   -0.41731   0.20017   102.22778
1762   0.07966   0.88681   -0.41670   0.20023   0.07966   0.88681   -0.41670   0.20023   102.28577
1763   0.07972   0.88684   -0.41685   0.20002   0.07972   0.88684   -0.41685   0.20002   102.22778
1764   0.07978   0.88705   -0.41612   0.20069   0.07978   0.88705   -0.41612   0.20069   102.13318
1765   0.07978   0.88705   -0.41685   0.19938   0.07978   0.88705   -0.41685   0.19938   102.14539
1766   0.07968   0.88733   -0.41566   0.20032   0.07968   0.88733   -0.41566   0.20032   102.24915
1767   0.07972   0.88702   -0.41615   0.20060   0.07972   0.88702   -0.41615   0.20060   102.22778
1768   0.07983   0.88711   -0.41639   0.19993   0.07983   0.88711   -0.41639   0.19993   102.10876
1769   0.07981   0.88730   -0.41557   0.20038   0.07981   0.88730   -0.41557   0.20038   102.20032
1770   0.07967   0.88742   -0.41533   0.20032   0.07967   0.88742   -0.41533   0.20032   102.30713
1771   0.07978   0.88714   -0.41618   0.20005   0.07978   0.88714   -0.41618   0.20005   102.19116
1772   0.07983   0.88675   -0.41713   0.20008   0.07983   0.88675   -0.41713   0.20008   102.10876
1773   0.07971   0.88696   -0.41676   0.19959   0.07971   0.88696   -0.41676   0.19959   102.22778
1774   0.07964   0.88684   -0.41658   0.20023   0.07964   0.88684   -0.41658   0.20023   102.27356
1775   0.07970   0.88726   -0.41621   0.19941   0.07970   0.88726   -0.41621   0.19941   102.14539
1776   0.07975   0.88717   -0.41627   0.19974   0.07975   0.88717   -0.41627   0.19974   102.12097
1777   0.07968   0.88699   -0.41661   0.19990   0.07968   0.88699   -0.41661   0.19990   102.19421
1778   0.07968   0.88726   -0.41627   0.19956   0.07968   0.88726   -0.41627   0.19956   102.22778
1779   0.07975   0.88696   -0.41627   0.20048   0.07975   0.88696   -0.41627   0.20048   102.16980
1780   0.07976   0.88687   -0.41700   0.19987   0.07976   0.88687   -0.41700   0.19987   102.17896
1781   0.07972   0.88696   -0.41655   0.19996   0.07972   0.88696   -0.41655   0.19996   102.26135
1782   0.07975   0.88690   -0.41685   0.19974   0.07975   0.88690   -0.41685   0.19974   102.16980
1783   0.07979   0.88687   -0.41649   0.20032   0.07979   0.88687   -0.41649   0.20032   102.16675
1784   0.07976   0.88708   -0.41643   0.20002   0.07976   0.88708   -0.41643   0.20002   102.17896
1785   0.07975   0.88656   -0.41731   0.20017   0.07975   0.88656   -0.41731   0.20017   102.23694
1786   0.07977   0.88699   -0.41652   0.19999   0.07977   0.88699   -0.41652   0.19999   102.17896
1787   0.07972   0.88699   -0.41621   0.20045   0.07972   0.88699   -0.41621   0.20045   102.21558
1788   0.07965   0.88681   -0.41612   0.20136   0.07965   0.88681   -0.41612   0.20136   102.22778
1789   0.07966   0.88675   -0.41694   0.20026   0.07966   0.88675   -0.41694   0.20026   102.16980
1790   0.07974   0.88656   -0.41670   0.20145   0.07974   0.88656   -0.41670   0.20145   102.14539
1791   0.07970   0.88644   -0.41768   0.19990   0.07970   0.88644   -0.41768   0.19990   102.23999
1792   0.07969   0.88699   -0.41655   0.19965   0.07969   0.88699   -0.41655   0.19965   102.24915
1793   0.07972   0.88693   -0.41609   0.20109   0.07972   0.88693   -0.41609   0.20109   102.18201
1794   0.07977   0.88693   -0.41664   0.19999   0.07977   0.88693   -0.41664   0.19999   102.14539
1795   0.07973   0.88678   -0.41658   0.20081   0.07973   0.88678   -0.41658   0.20081   102.20337
1796   0.07973   0.88733   -0.41578   0.20020   0.07973   0.88733   -0.41578   0.20020   102.23694
1797   0.07978   0.88717   -0.41560   0.20106   0.07978   0.88717   -0.41560   0.20106   102.19116
1798   0.07980   0.88699   -0.41597   0.20096   0.07980   0.88699   -0.41597   0.20096   102.15454
1799   0.07975   0.88723   -0.41618   0.19977   0.07975   0.88723   -0.41618   0.19977   102.26135
1800   0.07967   0.88678   -0.41673   0.20045   0.07967   0.88678   -0.41673   0.20045   102.28577
1801   0.07976   0.88662   -0.41679   0.20078   0.07976   0.88662   -0.41679   0.20078   102.14539
1802   0.07968   0.88696   -0.41670   0.20035   0.07968   0.88696   -0.41670   0.20035   102.13623
1803   0.07962   0.88723   -0.41621   0.19971   0.07962   0.88723   -0.41621   0.19971   102.25220
1804   0.07962   0.88647   -0.41792   0.19959   0.07962   0.88647   -0.41792   0.19959   102.23999
1805   0.07977   0.88672   -0.41740   0.19980   0.07977   0.88672   -0.41740   0.19980   102.12097
1806   0.07972   0.88659   -0.41719   0.20066   0.07972   0.88659   -0.41719   0.20066   102.16980
1807   0.07966   0.88644   -0.41749   0.20045   0.07966   0.88644   -0.41749   0.20045   102.25220
1808   0.07971   0.88708   -0.41609   0.20017   0.07971   0.88708   -0.41609   0.20017   102.21558
1809   0.07979   0.88684   -0.41655   0.20045   0.07979   0.88684   -0.41655   0.20045   102.14539
1810   0.07975   0.88672   -0.41719   0.19977   0.07975   0.88672   -0.41719   0.19977   102.20337
1811   0.07971   0.88650   -0.41734   0.20042   0.07971   0.88650   -0.41734   0.20042   102.26135
1812   0.07978   0.88675   -0.41728   0.19947   0.07978   0.88675   -0.41728   0.19947   102.19116
1813   0.07978   0.88690   -0.41646   0.20060   0.07978   0.88690   -0.41646   0.20060   102.15759
1814   0.07973   0.88678   -0.41694   0.19980   0.07973   0.88678   -0.41694   0.19980   102.21558
1815   0.07966   0.88623   -0.41823   0.20014   0.07966   0.88623   -0.41823   0.20014   102.25220
1816   0.07965   0.88647   -0.41725   0.20093   0.07965   0.88647   -0.41725   0.20093   102.16980
1817   0.07974   0.88653   -0.41743   0.19999   0.07974   0.88653   -0.41743   0.19999   102.16980
1818   0.07967   0.88647   -0.41798   0.19965   0.07967   0.88647   -0.41798   0.19965   102.23999
1819   0.07955   0.88678   -0.41719   0.19974   0.07955   0.88678   -0.41719   0.19974   102.20947
1820   0.07952   0.88653   -0.41713   0.20099   0.07952   0.88653   -0.41713   0.20099   102.18506
1821   0.07976   0.88665   -0.41740   0.19987   0.07976   0.88665   -0.41740   0.19987   102.19116
1822   0.07980   0.88647   -0.41786   0.19962   0.07980   0.88647   -0.41786   0.19962   102.21252
1823   0.07974   0.88662   -0.41691   0.20066   0.07974   0.88662   -0.41691   0.20066   102.21558
1824   0.07975   0.88681   -0.41658   0.20038   0.07975   0.88681   -0.41658   0.20038   102.17896
1825   0.07971   0.88662   -0.41725   0.20023   0.07971   0.88662   -0.41725   0.20023   102.23694
1826   0.07979   0.88662   -0.41734   0.20011   0.07979   0.88662   -0.41734   0.20011   102.22473
1827   0.07987   0.88641   -0.41810   0.19922   0.07987   0.88641   -0.41810   0.19922   102.15454
1828   0.07977   0.88641   -0.41801   0.19950   0.07977   0.88641   -0.41801   0.19950   102.19116
1829   0.07961   0.88681   -0.41722   0.19922   0.07961   0.88681   -0.41722   0.19922   102.25220
1830   0.07968   0.88684   -0.41639   0.20078   0.07968   0.88684   -0.41639   0.20078   102.22778
1831   0.07982   0.88684   -0.41649   0.20078   0.07982   0.88684   -0.41649   0.20078   102.13318
1832   0.07970   0.88659   -0.41722   0.20005   0.07970   0.88659   -0.41722   0.20005   102.16980
1833   0.07966   0.88668   -0.41762   0.19898   0.07966   0.88668   -0.41762   0.19898   102.26135
1834   0.07974   0.88675   -0.41716   0.20011   0.07974   0.88675   -0.41716   0.20011   102.19116
1835   0.07980   0.88662   -0.41713   0.20038   0.07980   0.88662   -0.41713   0.20038   102.12097
1836   0.07974   0.88626   -0.41816   0.19993   0.07974   0.88626   -0.41816   0.19993   102.22473
1837   0.07966   0.88678   -0.41697   0.19959   0.07966   0.88678   -0.41697   0.19959   102.27356
1838   0.07981   0.88626   -0.41765   0.20023   0.07981   0.88626   -0.41765   0.20023   102.16675
1839   0.07992   0.88653   -0.41707   0.20042   0.07992   0.88653   -0.41707   0.20042   102.15149
1840   0.07980   0.88629   -0.41856   0.19913   0.07980   0.88629   -0.41856   0.19913   102.24609
1841   0.07959   0.88653   -0.41783   0.19965   0.07959   0.88653   -0.41783   0.19965   102.27661
1842   0.07975   0.88668   -0.41673   0.20075   0.07975   0.88668   -0.41673   0.20075   102.16980
1843   0.07977   0.88626   -0.41765   0.20090   0.07977   0.88626   -0.41765   0.20090   102.16675
1844   0.07974   0.88644   -0.41795   0.19977   0.07974   0.88644   -0.41795   0.19977   102.23694
1845   0.07966   0.88638   -0.41762   0.20057   0.07966   0.88638   -0.41762   0.20057   102.22778
1846   0.07971   0.88632   -0.41765   0.20045   0.07971   0.88632   -0.41765   0.20045   102.19116
1847   0.07973   0.88665   -0.41676   0.20087   0.07973   0.88665   -0.41676   0.20087   102.16980
1848   0.07972   0.88641   -0.41762   0.20008   0.07972   0.88641   -0.41762   0.20008   102.28271
1849   0.07974   0.88659   -0.41731   0.20038   0.07974   0.88659   -0.41731   0.20038   102.19116
1850   0.07975   0.88614   -0.41835   0.19996   0.07975   0.88614   -0.41835   0.19996   102.17896
1851   0.07978   0.88662   -0.41691   0.20066   0.07978   0.88662   -0.41691   0.20066   102.15454
1852   0.07975   0.88598   -0.41844   0.20017   0.07975   0.88598   -0.41844   0.20017   102.24915
1853   0.07978   0.88610   -0.41829   0.20017   0.07978   0.88610   -0.41829   0.20017   102.20032
1854   0.07977   0.88604   -0.41820   0.20069   0.07977   0.88604   -0.41820   0.20069   102.20337
1855   0.07985   0.88668   -0.41710   0.19987   0.07985   0.88668   -0.41710   0.19987   102.18811
1856   0.07973   0.88696   -0.41603   0.20109   0.07973   0.88696   -0.41603   0.20109   102.22778
1857   0.07949   0.88626   -0.41789   0.19996   0.07949   0.88626   -0.41789   0.19996   102.17590
1858   0.07959   0.88620   -0.41810   0.20014   0.07959   0.88620   -0.41810   0.20014   102.18506
1859   0.07974   0.88589   -0.41865   0.20054   0.07974   0.88589   -0.41865   0.20054   102.26135
1860   0.07971   0.88595   -0.41820   0.20099   0.07971   0.88595   -0.41820   0.20099   102.20337
1861   0.07960   0.88617   -0.41853   0.19980   0.07960   0.88617   -0.41853   0.19980   102.16064
1862   0.07967   0.88641   -0.41777   0.20005   0.07967   0.88641   -0.41777   0.20005   102.21558
1863   0.07973   0.88656   -0.41762   0.19947   0.07973   0.88656   -0.41762   0.19947   102.29492
1864   0.07976   0.88672   -0.41722   0.19959   0.07976   0.88672   -0.41722   0.19959   102.16675
1865   0.07975   0.88598   -0.41887   0.19962   0.07975   0.88598   -0.41887   0.19962   102.17896
1866   0.07969   0.88635   -0.41755   0.20029   0.07969   0.88635   -0.41755   0.20029   102.27356
1867   0.07970   0.88730   -0.41566   0.20066   0.07970   0.88730   -0.41566   0.20066   102.23999
1868   0.07979   0.88696   -0.41609   0.20103   0.07979   0.88696   -0.41609   0.20103   102.12097
1869   0.07976   0.88644   -0.41749   0.20029   0.07976   0.88644   -0.41749   0.20029   102.17896
1870   0.07962   0.88632   -0.41801   0.20008   0.07962   0.88632   -0.41801   0.20008   102.26440
1871   0.07960   0.88586   -0.41801   0.20164   0.07960   0.88586   -0.41801   0.20164   102.25220
1872   0.07977   0.88586   -0.41868   0.20054   0.07977   0.88586   -0.41868   0.20054   102.11182
1873   0.07969   0.88681   -0.41670   0.20029   0.07969   0.88681   -0.41670   0.20029   102.15759
1874   0.07966   0.88626   -0.41835   0.19919   0.07966   0.88626   -0.41835   0.19919   102.31934
1875   0.07972   0.88659   -0.41765   0.19959   0.07972   0.88659   -0.41765   0.19959   102.21558
1876   0.07979   0.88711   -0.41630   0.19962   0.07979   0.88711   -0.41630   0.19962   102.09961
1877   0.07974   0.88580   -0.41905   0.19987   0.07974   0.88580   -0.41905   0.19987   102.21558
1878   0.07967   0.88626   -0.41768   0.20045   0.07967   0.88626   -0.41768   0.20045   102.27356
1879   0.07976   0.88635   -0.41749   0.20072   0.07976   0.88635   -0.41749   0.20072   102.24915
1880   0.07981   0.88632   -0.41774   0.20057   0.07981   0.88632   -0.41774   0.20057   102.14233
1881   0.07974   0.88623   -0.41746   0.20142   0.07974   0.88623   -0.41746   0.20142   102.23694
1882   0.07968   0.88626   -0.41798   0.20014   0.07968   0.88626   -0.41798   0.20014   102.28577
1883   0.07972   0.88656   -0.41762   0.19974   0.07972   0.88656   -0.41762   0.19974   102.15759
1884   0.07972   0.88620   -0.41816   0.20032   0.07972   0.88620   -0.41816   0.20032   102.16980
1885   0.07967   0.88659   -0.41752   0.19987   0.07967   0.88659   -0.41752   0.19987   102.22778
1886   0.07963   0.88644   -0.41823   0.19919   0.07963   0.88644   -0.41823   0.19919   102.26440
1887   0.07973   0.88702   -0.41652   0.20023   0.07973   0.88702   -0.41652   0.20023   102.16980
1888   0.07972   0.88635   -0.41832   0.19880   0.07972   0.88635   -0.41832   0.19880   102.21558
1889   0.07966   0.88565   -0.41902   0.20032   0.07966   0.88565   -0.41902   0.20032   102.28577
1890   0.07973   0.88626   -0.41820   0.19959   0.07973   0.88626   -0.41820   0.19959   102.21558
1891   0.07978   0.88665   -0.41722   0.20020   0.07978   0.88665   -0.41722   0.20020   102.19116
1892   0.07973   0.88568   -0.41932   0.20020   0.07973   0.88568   -0.41932   0.20020   102.20337
1893   0.07970   0.88604   -0.41841   0.20057   0.07970   0.88604   -0.41841   0.20057   102.22778
1894   0.07976   0.88623   -0.41752   0.20093   0.07976   0.88623   -0.41752   0.20093   102.19116
1895   0.07979   0.88641   -0.41765   0.19987   0.07979   0.88641   -0.41765   0.19987   102.20032
1896   0.07970   0.88614   -0.41871   0.19932   0.07970   0.88614   -0.41871   0.19932   102.23999
1897   0.07969   0.88610   -0.41859   0.19950   0.07969   0.88610   -0.41859   0.19950   102.21558
1898   0.07965   0.88623   -0.41804   0.20038   0.07965   0.88623   -0.41804   0.20038   102.16064
1899   0.07966   0.88617   -0.41838   0.19987   0.07966   0.88617   -0.41838   0.19987   102.21558
1900   0.07960   0.88610   -0.41865   0.19929   0.07960   0.88610   -0.41865   0.19929   102.26440
1901   0.07968   0.88592   -0.41896   0.19968   0.07968   0.88592   -0.41896   0.19968   102.21558
1902   0.07975   0.88672   -0.41725   0.19974   0.07975   0.88672   -0.41725   0.19974   102.13318
1903   0.07968   0.88623   -0.41881   0.19901   0.07968   0.88623   -0.41881   0.19901   102.22778
1904   0.07964   0.88623   -0.41838   0.19968   0.07964   0.88623   -0.41838   0.19968   102.31018
1905   0.07976   0.88617   -0.41795   0.20051   0.07976   0.88617   -0.41795   0.20051   102.19116
1906   0.07978   0.88629   -0.41816   0.19971   0.07978   0.88629   -0.41816   0.19971   102.15454
1907   0.07972   0.88647   -0.41777   0.19941   0.07972   0.88647   -0.41777   0.19941   102.24915
1908   0.07969   0.88684   -0.41652   0.20035   0.07969   0.88684   -0.41652   0.20035   102.26135
1909   0.07978   0.88598   -0.41850   0.20026   0.07978   0.88598   -0.41850   0.20026   102.13318
1910   0.07976   0.88668   -0.41765   0.19919   0.07976   0.88668   -0.41765   0.19919   102.14539
1911   0.07962   0.88650   -0.41820   0.19855   0.07962   0.88650   -0.41820   0.19855   102.26440
1912   0.07963   0.88601   -0.41874   0.19996   0.07963   0.88601   -0.41874   0.19996   102.22778
1913   0.07975   0.88644   -0.41771   0.20017   0.07975   0.88644   -0.41771   0.20017   102.13318
1914   0.07970   0.88635   -0.41789   0.19977   0.07970   0.88635   -0.41789   0.19977   102.15759
1915   0.07967   0.88659   -0.41789   0.19886   0.07967   0.88659   -0.41789   0.19886   102.23999
1916   0.07969   0.88644   -0.41734   0.20096   0.07969   0.88644   -0.41734   0.20096   102.20337
1917   0.07980   0.88620   -0.41807   0.20060   0.07980   0.88620   -0.41807   0.20060   102.12097
1918   0.07977   0.88614   -0.41816   0.20002   0.07977   0.88614   -0.41816   0.20002   102.17896
1919   0.07974   0.88638   -0.41801   0.19932   0.07974   0.88638   -0.41801   0.19932   102.24915
1920   0.07986   0.88595   -0.41835   0.20099   0.07986   0.88595   -0.41835   0.20099   102.20032
1921   0.07987   0.88635   -0.41780   0.19990   0.07987   0.88635   -0.41780   0.19990   102.17590
1922   0.07975   0.88617   -0.41810   0.20029   0.07975   0.88617   -0.41810   0.20029   102.21558
1923   0.07968   0.88629   -0.41746   0.20075   0.07968   0.88629   -0.41746   0.20075   102.24915
1924   0.07976   0.88668   -0.41688   0.20054   0.07976   0.88668   -0.41688   0.20054   102.16675
1925   0.07967   0.88632   -0.41807   0.19950   0.07967   0.88632   -0.41807   0.19950   102.18201
1926   0.07963   0.88665   -0.41719   0.20017   0.07963   0.88665   -0.41719   0.20017   102.22778
1927   0.07966   0.88583   -0.41871   0.20048   0.07966   0.88583   -0.41871   0.20048   102.21558
1928   0.07967   0.88632   -0.41774   0.20014   0.07967   0.88632   -0.41774   0.20014   102.18201
1929   0.07972   0.88617   -0.41813   0.20005   0.07972   0.88617   -0.41813   0.20005   102.21558
1930   0.07969   0.88647   -0.41780   0.19999   0.07969   0.88647   -0.41780   0.19999   102.23999
1931   0.07974   0.88586   -0.41865   0.20048   0.07974   0.88586   -0.41865   0.20048   102.17896
1932   0.07976   0.88604   -0.41826   0.20051   0.07976   0.88604   -0.41826   0.20051   102.19116
1933   0.07970   0.88577   -0.41884   0.20029   0.07970   0.88577   -0.41884   0.20029   102.27356
1934   0.07973   0.88644   -0.41758   0.20026   0.07973   0.88644   -0.41758   0.20026   102.24915
1935   0.07979   0.88546   -0.41975   0.19962   0.07979   0.88546   -0.41975   0.19962   102.16675
1936   0.07974   0.88583   -0.41877   0.20011   0.07974   0.88583   -0.41877   0.20011   102.23694
1937   0.07964   0.88644   -0.41731   0.20090   0.07964   0.88644   -0.41731   0.20090   102.26440
1938   0.07966   0.88559   -0.41954   0.19984   0.07966   0.88559   -0.41954   0.19984   102.22778
1939   0.07945   0.88586   -0.41877   0.20005   0.07945   0.88586   -0.41877   0.20005   102.14233
1940   0.07954   0.88568   -0.41844   0.20188   0.07954   0.88568   -0.41844   0.20188   102.24304
1941   0.07963   0.88577   -0.41890   0.20066   0.07963   0.88577   -0.41890   0.20066   102.29797
1942   0.07972   0.88562   -0.41868   0.20154   0.07972   0.88562   -0.41868   0.20154   102.21558
1943   0.07967   0.88620   -0.41813   0.19977   0.07967   0.88620   -0.41813   0.19977   102.13623
1944   0.07959   0.88638   -0.41771   0.19977   0.07959   0.88638   -0.41771   0.19977   102.23083
1945   0.07966   0.88626   -0.41823   0.19971   0.07966   0.88626   -0.41823   0.19971   102.25220
1946   0.07972   0.88577   -0.41945   0.19941   0.07972   0.88577   -0.41945   0.19941   102.20337
1947   0.07975   0.88565   -0.41923   0.20005   0.07975   0.88565   -0.41923   0.20005   102.16980
1948   0.07965   0.88626   -0.41807   0.20023   0.07965   0.88626   -0.41807   0.20023   102.26440
1949   0.07969   0.88559   -0.41929   0.20035   0.07969   0.88559   -0.41929   0.20035   102.22778
1950   0.07976   0.88543   -0.41960   0.20038   0.07976   0.88543   -0.41960   0.20038   102.19116
1951   0.07975   0.88592   -0.41893   0.19953   0.07975   0.88592   -0.41893   0.19953   102.17896
1952   0.07961   0.88650   -0.41783   0.19956   0.07961   0.88650   -0.41783   0.19956   102.26440
1953   0.07957   0.88620   -0.41826   0.20020   0.07957   0.88620   -0.41826   0.20020   102.21863
1954   0.07972   0.88629   -0.41752   0.20072   0.07972   0.88629   -0.41752   0.20072   102.18201
1955   0.07979   0.88607   -0.41853   0.19971   0.07979   0.88607   -0.41853   0.19971   102.20032
1956   0.07968   0.88620   -0.41813   0.20026   0.07968   0.88620   -0.41813   0.20026   102.20337
1957   0.07972   0.88659   -0.41734   0.20029   0.07972   0.88659   -0.41734   0.20029   102.18201
1958   0.07979   0.88565   -0.41899   0.20054   0.07979   0.88565   -0.41899   0.20054   102.19116
1959   0.07976   0.88641   -0.41798   0.19987   0.07976   0.88641   -0.41798   0.19987   102.19116
1960   0.07977   0.88607   -0.41795   0.20087   0.07977   0.88607   -0.41795   0.20087   102.23694
1961   0.07985   0.88589   -0.41902   0.19953   0.07985   0.88589   -0.41902   0.19953   102.17590
1962   0.07976   0.88537   -0.41978   0.20032   0.07976   0.88537   -0.41978   0.20032   102.23694
1963   0.07977   0.88610   -0.41820   0.20060   0.07977   0.88610   -0.41820   0.20060   102.28271
1964   0.07979   0.88614   -0.41789   0.20084   0.07979   0.88614   -0.41789   0.20084   102.21252
1965   0.07977   0.88638   -0.41771   0.20038   0.07977   0.88638   -0.41771   0.20038   102.16675
1966   0.07962   0.88604   -0.41832   0.20060   0.07962   0.88604   -0.41832   0.20060   102.25220
1967   0.07962   0.88592   -0.41881   0.20017   0.07962   0.88592   -0.41881   0.20017   102.23999
1968   0.07977   0.88620   -0.41801   0.20066   0.07977   0.88620   -0.41801   0.20066   102.19116
1969   0.07973   0.88629   -0.41786   0.20038   0.07973   0.88629   -0.41786   0.20038   102.16980
1970   0.07967   0.88632   -0.41813   0.19980   0.07967   0.88632   -0.41813   0.19980   102.23999
1971   0.07970   0.88635   -0.41755   0.20066   0.07970   0.88635   -0.41755   0.20066   102.24915
1972   0.07978   0.88586   -0.41826   0.20118   0.07978   0.88586   -0.41826   0.20118   102.15759
1973   0.07974   0.88632   -0.41746   0.20063   0.07974   0.88632   -0.41746   0.20063   102.17896
1974   0.07968   0.88629   -0.41795   0.19974   0.07968   0.88629   -0.41795   0.19974   102.30713
1975   0.07971   0.88601   -0.41829   0.20023   0.07971   0.88601   -0.41829   0.20023   102.23694
1976   0.07979   0.88589   -0.41862   0.20017   0.07979   0.88589   -0.41862   0.20017   102.14539
1977   0.07978   0.88565   -0.41926   0.19993   0.07978   0.88565   -0.41926   0.19993   102.23694
1978   0.07966   0.88592   -0.41887   0.20017   0.07966   0.88592   -0.41887   0.20017   102.28577
1979   0.07967   0.88607   -0.41792   0.20106   0.07967   0.88607   -0.41792   0.20106   102.21558
1980   0.07967   0.88610   -0.41832   0.20011   0.07967   0.88610   -0.41832   0.20011   102.16980
1981   0.07966   0.88571   -0.41884   0.20029   0.07966   0.88571   -0.41884   0.20029   102.25220
1982   0.07962   0.88617   -0.41856   0.19953   0.07962   0.88617   -0.41856   0.19953   102.23999
1983   0.07968   0.88620   -0.41798   0.20063   0.07968   0.88620   -0.41798   0.20063   102.19421
1984   0.07975   0.88574   -0.41902   0.20008   0.07975   0.88574   -0.41902   0.20008   102.15759
1985   0.07971   0.88626   -0.41789   0.20042   0.07971   0.88626   -0.41789   0.20042   102.20337
1986   0.07973   0.88620   -0.41862   0.19886   0.07973   0.88620   -0.41862   0.19886   102.21558
1987   0.07971   0.88610   -0.41789   0.20118   0.07971   0.88610   -0.41789   0.20118   102.18201
1988   0.07976   0.88607   -0.41835   0.19990   0.07976   0.88607   -0.41835   0.19990   102.22473
1989   0.07970   0.88586   -0.41881   0.19996   0.07970   0.88586   -0.41881   0.19996   102.23999
1990   0.07974   0.88623   -0.41826   0.19959   0.07974   0.88623   -0.41826   0.19959   102.19116
1991   0.07974   0.88672   -0.41722   0.19968   0.07974   0.88672   -0.41722   0.19968   102.17896
1992   0.07971   0.88641   -0.41758   0.19984   0.07971   0.88641   -0.41758   0.19984   102.20337
1993   0.07962   0.88644   -0.41774   0.19968   0.07962   0.88644   -0.41774   0.19968   102.27661
1994   0.07962   0.88586   -0.41862   0.20038   0.07962   0.88586   -0.41862   0.20038   102.19421
1995   0.07967   0.88562   -0.41914   0.20023   0.07967   0.88562   -0.41914   0.20023   102.22778
1996   0.07965   0.88607   -0.41865   0.19938   0.07965   0.88607   -0.41865   0.19938   102.26440
1997   0.07969   0.88647   -0.41765   0.20005   0.07969   0.88647   -0.41765   0.20005   102.22778
1998   0.07976   0.88620   -0.41777   0.20063   0.07976   0.88620   -0.41777   0.20063   102.15759
1999   0.07971   0.88553   -0.42006   0.19910   0.07971   0.88553   -0.42006   0.19910   102.23694
2000   0.07965   0.88574   -0.41911   0.20017   0.07965   0.88574   -0.41911   0.20017   102.27356
