Sampling rate: 10000.000 samples/sec
Screen size: 2000 samples
DOP average: 1 SOPsamples
Start time: 16:26:47 5/18/2021
Interval: 0.000100000 sec
(Waveform type: 1,3,4,5)
Index      S0(mW)      S1      S2      S3      S0(mW)      S1      S2      S3      DOP
1   0.07924   0.89819   -0.39988   0.18366   0.07924   0.89819   -0.39988   0.18366   101.90430
2   0.07917   0.89853   -0.39903   0.18345   0.07917   0.89853   -0.39903   0.18345   101.97754
3   0.07920   0.89834   -0.39967   0.18357   0.07920   0.89834   -0.39967   0.18357   101.98669
4   0.07926   0.89816   -0.39918   0.18488   0.07926   0.89816   -0.39918   0.18488   101.89209
5   0.07925   0.89789   -0.40068   0.18372   0.07925   0.89789   -0.40068   0.18372   101.92871
6   0.07918   0.89837   -0.39943   0.18305   0.07918   0.89837   -0.39943   0.18305   102.05688
7   0.07920   0.89856   -0.39964   0.18189   0.07920   0.89856   -0.39964   0.18189   101.90735
8   0.07922   0.89822   -0.39955   0.18390   0.07922   0.89822   -0.39955   0.18390   101.89514
9   0.07911   0.89810   -0.40046   0.18268   0.07911   0.89810   -0.40046   0.18268   101.97754
10   0.07912   0.89831   -0.39979   0.18299   0.07912   0.89831   -0.39979   0.18299   102.02332
11   0.07917   0.89840   -0.39888   0.18418   0.07917   0.89840   -0.39888   0.18418   101.90735
12   0.07922   0.89816   -0.39967   0.18366   0.07922   0.89816   -0.39967   0.18366   101.87073
13   0.07916   0.89843   -0.39955   0.18250   0.07916   0.89843   -0.39955   0.18250   101.98669
14   0.07912   0.89831   -0.39964   0.18296   0.07912   0.89831   -0.39964   0.18296   102.02332
15   0.07923   0.89846   -0.39875   0.18433   0.07923   0.89846   -0.39875   0.18433   101.89209
16   0.07927   0.89843   -0.39967   0.18247   0.07927   0.89843   -0.39967   0.18247   101.87988
17   0.07919   0.89901   -0.39872   0.18210   0.07919   0.89901   -0.39872   0.18210   101.92871
18   0.07916   0.89850   -0.39906   0.18357   0.07916   0.89850   -0.39906   0.18357   101.96533
19   0.07925   0.89807   -0.40001   0.18357   0.07925   0.89807   -0.40001   0.18357   101.91650
20   0.07921   0.89843   -0.39933   0.18302   0.07921   0.89843   -0.39933   0.18302   101.92871
21   0.07915   0.89816   -0.40028   0.18296   0.07915   0.89816   -0.40028   0.18296   101.99890
22   0.07912   0.89822   -0.39927   0.18445   0.07912   0.89822   -0.39927   0.18445   101.94397
23   0.07911   0.89859   -0.39946   0.18235   0.07911   0.89859   -0.39946   0.18235   101.95313
24   0.07913   0.89850   -0.39933   0.18336   0.07913   0.89850   -0.39933   0.18336   101.91956
25   0.07909   0.89895   -0.39857   0.18207   0.07909   0.89895   -0.39857   0.18207   101.94397
26   0.07918   0.89883   -0.39863   0.18256   0.07918   0.89883   -0.39863   0.18256   101.90735
27   0.07916   0.89837   -0.39946   0.18348   0.07916   0.89837   -0.39946   0.18348   101.91956
28   0.07924   0.89804   -0.40071   0.18241   0.07924   0.89804   -0.40071   0.18241   101.97449
29   0.07927   0.89792   -0.40010   0.18400   0.07927   0.89792   -0.40010   0.18400   101.95007
30   0.07922   0.89846   -0.39863   0.18461   0.07922   0.89846   -0.39863   0.18461   101.87073
31   0.07917   0.89789   -0.40086   0.18241   0.07917   0.89789   -0.40086   0.18241   101.95313
32   0.07915   0.89895   -0.39857   0.18278   0.07915   0.89895   -0.39857   0.18278   102.01111
33   0.07922   0.89862   -0.39863   0.18357   0.07922   0.89862   -0.39863   0.18357   101.88293
34   0.07919   0.89813   -0.39970   0.18375   0.07919   0.89813   -0.39970   0.18375   101.89514
35   0.07911   0.89877   -0.39924   0.18232   0.07911   0.89877   -0.39924   0.18232   101.96533
36   0.07903   0.89846   -0.39991   0.18213   0.07903   0.89846   -0.39991   0.18213   102.02637
37   0.07912   0.89840   -0.39860   0.18470   0.07912   0.89840   -0.39860   0.18470   101.91956
38   0.07914   0.89840   -0.40034   0.18137   0.07914   0.89840   -0.40034   0.18137   101.91956
39   0.07904   0.89886   -0.39894   0.18223   0.07904   0.89886   -0.39894   0.18223   102.05994
40   0.07911   0.89901   -0.39833   0.18226   0.07911   0.89901   -0.39833   0.18226   101.95313
41   0.07921   0.89816   -0.39985   0.18369   0.07921   0.89816   -0.39985   0.18369   101.85852
42   0.07920   0.89856   -0.39976   0.18140   0.07920   0.89856   -0.39976   0.18140   101.96228
43   0.07913   0.89862   -0.39946   0.18220   0.07913   0.89862   -0.39946   0.18220   102.03552
44   0.07915   0.89868   -0.39930   0.18265   0.07915   0.89868   -0.39930   0.18265   101.94092
45   0.07921   0.89856   -0.39888   0.18397   0.07921   0.89856   -0.39888   0.18397   101.87073
46   0.07904   0.89792   -0.40089   0.18201   0.07904   0.89792   -0.40089   0.18201   102.00195
47   0.07894   0.89798   -0.40077   0.18235   0.07894   0.89798   -0.40077   0.18235   102.02942
48   0.07919   0.89840   -0.39976   0.18241   0.07919   0.89840   -0.39976   0.18241   101.90735
49   0.07923   0.89782   -0.40120   0.18235   0.07923   0.89782   -0.40120   0.18235   101.91650
50   0.07903   0.89828   -0.40077   0.18064   0.07903   0.89828   -0.40077   0.18064   101.98975
51   0.07905   0.89813   -0.39988   0.18354   0.07905   0.89813   -0.39988   0.18354   102.04773
52   0.07917   0.89804   -0.39918   0.18525   0.07917   0.89804   -0.39918   0.18525   101.95313
53   0.07921   0.89831   -0.39979   0.18256   0.07921   0.89831   -0.39979   0.18256   101.95313
54   0.07914   0.89776   -0.40089   0.18302   0.07914   0.89776   -0.40089   0.18302   102.02332
55   0.07909   0.89764   -0.40165   0.18226   0.07909   0.89764   -0.40165   0.18226   102.00195
56   0.07916   0.89816   -0.39982   0.18311   0.07916   0.89816   -0.39982   0.18311   101.96533
57   0.07919   0.89813   -0.40074   0.18213   0.07919   0.89813   -0.40074   0.18213   101.91650
58   0.07921   0.89810   -0.40031   0.18256   0.07921   0.89810   -0.40031   0.18256   102.01111
59   0.07919   0.89789   -0.40074   0.18302   0.07919   0.89789   -0.40074   0.18302   101.96533
60   0.07920   0.89840   -0.39973   0.18268   0.07920   0.89840   -0.39973   0.18268   101.92871
61   0.07918   0.89856   -0.39970   0.18183   0.07918   0.89856   -0.39970   0.18183   101.99890
62   0.07918   0.89767   -0.40114   0.18302   0.07918   0.89767   -0.40114   0.18302   101.98669
63   0.07925   0.89819   -0.40007   0.18268   0.07925   0.89819   -0.40007   0.18268   101.92871
64   0.07916   0.89785   -0.40120   0.18229   0.07916   0.89785   -0.40120   0.18229   101.95313
65   0.07908   0.89764   -0.40233   0.18101   0.07908   0.89764   -0.40233   0.18101   102.03552
66   0.07917   0.89789   -0.40065   0.18320   0.07917   0.89789   -0.40065   0.18320   101.95313
67   0.07932   0.89819   -0.39949   0.18384   0.07932   0.89819   -0.39949   0.18384   101.89209
68   0.07922   0.89752   -0.40159   0.18287   0.07922   0.89752   -0.40159   0.18287   102.00806
69   0.07914   0.89782   -0.40129   0.18226   0.07914   0.89782   -0.40129   0.18226   102.05688
70   0.07926   0.89825   -0.39982   0.18284   0.07926   0.89825   -0.39982   0.18284   101.90430
71   0.07929   0.89813   -0.40007   0.18299   0.07929   0.89813   -0.40007   0.18299   101.92566
72   0.07924   0.89843   -0.39991   0.18207   0.07924   0.89843   -0.39991   0.18207   102.00806
73   0.07919   0.89837   -0.39985   0.18198   0.07919   0.89837   -0.39985   0.18198   102.03247
74   0.07929   0.89859   -0.39933   0.18253   0.07929   0.89859   -0.39933   0.18253   101.87988
75   0.07927   0.89807   -0.39998   0.18314   0.07927   0.89807   -0.39998   0.18314   101.93787
76   0.07915   0.89804   -0.40104   0.18183   0.07915   0.89804   -0.40104   0.18183   101.96533
77   0.07910   0.89856   -0.39946   0.18226   0.07910   0.89856   -0.39946   0.18226   101.97754
78   0.07919   0.89904   -0.39897   0.18104   0.07919   0.89904   -0.39897   0.18104   101.89514
79   0.07918   0.89819   -0.40056   0.18143   0.07918   0.89819   -0.40056   0.18143   101.95313
80   0.07907   0.89874   -0.39906   0.18204   0.07907   0.89874   -0.39906   0.18204   102.05994
81   0.07921   0.89810   -0.40059   0.18171   0.07921   0.89810   -0.40059   0.18171   101.94092
82   0.07920   0.89804   -0.40080   0.18192   0.07920   0.89804   -0.40080   0.18192   101.95313
83   0.07916   0.89822   -0.40046   0.18195   0.07916   0.89822   -0.40046   0.18195   101.97754
84   0.07919   0.89853   -0.39955   0.18250   0.07919   0.89853   -0.39955   0.18250   101.97449
85   0.07924   0.89834   -0.40046   0.18131   0.07924   0.89834   -0.40046   0.18131   101.92871
86   0.07929   0.89795   -0.40049   0.18262   0.07929   0.89795   -0.40049   0.18262   101.91650
87   0.07921   0.89770   -0.40123   0.18210   0.07921   0.89770   -0.40123   0.18210   102.03247
88   0.07924   0.89810   -0.40065   0.18198   0.07924   0.89810   -0.40065   0.18198   101.98669
89   0.07927   0.89801   -0.40110   0.18159   0.07927   0.89801   -0.40110   0.18159   101.96228
90   0.07919   0.89850   -0.39995   0.18195   0.07919   0.89850   -0.39995   0.18195   101.95313
91   0.07909   0.89804   -0.40107   0.18134   0.07909   0.89804   -0.40107   0.18134   102.02332
92   0.07915   0.89825   -0.39961   0.18332   0.07915   0.89825   -0.39961   0.18332   101.92871
93   0.07919   0.89831   -0.40022   0.18213   0.07919   0.89831   -0.40022   0.18213   101.90735
94   0.07912   0.89862   -0.39991   0.18134   0.07912   0.89862   -0.39991   0.18134   101.97754
95   0.07918   0.89846   -0.40059   0.18049   0.07918   0.89846   -0.40059   0.18049   101.95313
96   0.07925   0.89789   -0.40098   0.18229   0.07925   0.89789   -0.40098   0.18229   101.89209
97   0.07922   0.89709   -0.40312   0.18140   0.07922   0.89709   -0.40312   0.18140   102.02026
98   0.07913   0.89801   -0.40153   0.18043   0.07913   0.89801   -0.40153   0.18043   102.05688
99   0.07921   0.89767   -0.40168   0.18189   0.07921   0.89767   -0.40168   0.18189   101.97449
100   0.07931   0.89856   -0.39964   0.18235   0.07931   0.89856   -0.39964   0.18235   101.87988
101   0.07922   0.89813   -0.40065   0.18186   0.07922   0.89813   -0.40065   0.18186   101.97449
102   0.07918   0.89825   -0.40083   0.18131   0.07918   0.89825   -0.40083   0.18131   102.06909
103   0.07922   0.89764   -0.40184   0.18186   0.07922   0.89764   -0.40184   0.18186   101.98669
104   0.07922   0.89773   -0.40135   0.18238   0.07922   0.89773   -0.40135   0.18238   101.91650
105   0.07909   0.89816   -0.40132   0.18012   0.07909   0.89816   -0.40132   0.18012   102.01416
106   0.07909   0.89804   -0.40138   0.18088   0.07909   0.89804   -0.40138   0.18088   102.04773
107   0.07919   0.89859   -0.40031   0.18067   0.07919   0.89859   -0.40031   0.18067   101.90735
108   0.07918   0.89801   -0.40104   0.18174   0.07918   0.89801   -0.40104   0.18174   101.94092
109   0.07913   0.89770   -0.40226   0.18070   0.07913   0.89770   -0.40226   0.18070   102.02332
110   0.07911   0.89807   -0.40046   0.18216   0.07911   0.89807   -0.40046   0.18216   102.03552
111   0.07925   0.89810   -0.40046   0.18271   0.07925   0.89810   -0.40046   0.18271   101.95007
112   0.07923   0.89807   -0.40074   0.18180   0.07923   0.89807   -0.40074   0.18180   101.96228
113   0.07917   0.89776   -0.40172   0.18110   0.07917   0.89776   -0.40172   0.18110   102.06909
114   0.07918   0.89807   -0.40059   0.18213   0.07918   0.89807   -0.40059   0.18213   101.97449
115   0.07927   0.89834   -0.40059   0.18104   0.07927   0.89834   -0.40059   0.18104   101.93787
116   0.07921   0.89856   -0.40007   0.18146   0.07921   0.89856   -0.40007   0.18146   101.96228
117   0.07917   0.89789   -0.40123   0.18210   0.07917   0.89789   -0.40123   0.18210   102.03247
118   0.07916   0.89779   -0.40107   0.18238   0.07916   0.89779   -0.40107   0.18238   101.97754
119   0.07913   0.89773   -0.40211   0.18039   0.07913   0.89773   -0.40211   0.18039   101.98975
120   0.07913   0.89819   -0.40104   0.18049   0.07913   0.89819   -0.40104   0.18049   102.02332
121   0.07913   0.89792   -0.40083   0.18204   0.07913   0.89792   -0.40083   0.18204   101.99890
122   0.07918   0.89776   -0.40126   0.18259   0.07918   0.89776   -0.40126   0.18259   101.96533
123   0.07915   0.89868   -0.40022   0.18070   0.07915   0.89868   -0.40022   0.18070   101.94092
124   0.07913   0.89819   -0.40095   0.18094   0.07913   0.89819   -0.40095   0.18094   102.06909
125   0.07920   0.89853   -0.39982   0.18207   0.07920   0.89853   -0.39982   0.18207   101.89514
126   0.07920   0.89761   -0.40211   0.18131   0.07920   0.89761   -0.40211   0.18131   101.98669
127   0.07915   0.89795   -0.40178   0.18036   0.07915   0.89795   -0.40178   0.18036   102.03552
128   0.07899   0.89831   -0.40150   0.17960   0.07899   0.89831   -0.40150   0.17960   102.00500
129   0.07922   0.89764   -0.40144   0.18223   0.07922   0.89764   -0.40144   0.18223   101.92871
130   0.07933   0.89810   -0.40114   0.18097   0.07933   0.89810   -0.40114   0.18097   101.92566
131   0.07916   0.89782   -0.40205   0.17994   0.07916   0.89782   -0.40205   0.17994   102.06909
132   0.07911   0.89825   -0.40068   0.18097   0.07911   0.89825   -0.40068   0.18097   102.00195
133   0.07914   0.89810   -0.40129   0.18061   0.07914   0.89810   -0.40129   0.18061   101.89514
134   0.07917   0.89782   -0.40144   0.18116   0.07917   0.89782   -0.40144   0.18116   101.96533
135   0.07915   0.89752   -0.40199   0.18186   0.07915   0.89752   -0.40199   0.18186   102.06909
136   0.07922   0.89752   -0.40181   0.18204   0.07922   0.89752   -0.40181   0.18204   102.00806
137   0.07927   0.89785   -0.40098   0.18244   0.07927   0.89785   -0.40098   0.18244   101.87073
138   0.07920   0.89764   -0.40223   0.18076   0.07920   0.89764   -0.40223   0.18076   102.03247
139   0.07914   0.89770   -0.40162   0.18165   0.07914   0.89770   -0.40162   0.18165   102.08130
140   0.07925   0.89782   -0.40132   0.18162   0.07925   0.89782   -0.40132   0.18162   101.97449
141   0.07925   0.89731   -0.40294   0.18128   0.07925   0.89731   -0.40294   0.18128   101.96228
142   0.07922   0.89779   -0.40172   0.18119   0.07922   0.89779   -0.40172   0.18119   101.99890
143   0.07921   0.89779   -0.40202   0.18064   0.07921   0.89779   -0.40202   0.18064   102.04468
144   0.07926   0.89758   -0.40211   0.18165   0.07926   0.89758   -0.40211   0.18165   101.95007
145   0.07918   0.89773   -0.40199   0.18113   0.07918   0.89773   -0.40199   0.18113   101.98669
146   0.07914   0.89810   -0.40117   0.18055   0.07914   0.89810   -0.40117   0.18055   102.02332
147   0.07924   0.89703   -0.40364   0.18116   0.07924   0.89703   -0.40364   0.18116   102.02026
148   0.07922   0.89816   -0.40080   0.18119   0.07922   0.89816   -0.40080   0.18119   101.99890
149   0.07904   0.89801   -0.40172   0.18058   0.07904   0.89801   -0.40172   0.18058   101.98059
150   0.07914   0.89740   -0.40251   0.18186   0.07914   0.89740   -0.40251   0.18186   102.02332
151   0.07929   0.89761   -0.40147   0.18265   0.07929   0.89761   -0.40147   0.18265   101.97449
152   0.07931   0.89731   -0.40248   0.18165   0.07931   0.89731   -0.40248   0.18165   101.99585
153   0.07920   0.89743   -0.40260   0.18097   0.07920   0.89743   -0.40260   0.18097   102.03247
154   0.07918   0.89731   -0.40272   0.18183   0.07918   0.89731   -0.40272   0.18183   102.02332
155   0.07926   0.89746   -0.40226   0.18186   0.07926   0.89746   -0.40226   0.18186   101.93787
156   0.07924   0.89709   -0.40309   0.18113   0.07924   0.89709   -0.40309   0.18113   102.04468
157   0.07919   0.89737   -0.40281   0.18064   0.07919   0.89737   -0.40281   0.18064   102.09045
158   0.07919   0.89767   -0.40135   0.18235   0.07919   0.89767   -0.40135   0.18235   101.97449
159   0.07919   0.89721   -0.40297   0.18137   0.07919   0.89721   -0.40297   0.18137   101.95313
160   0.07911   0.89740   -0.40294   0.17997   0.07911   0.89740   -0.40294   0.17997   102.06909
161   0.07912   0.89724   -0.40324   0.18070   0.07912   0.89724   -0.40324   0.18070   102.05994
162   0.07921   0.89703   -0.40294   0.18192   0.07921   0.89703   -0.40294   0.18192   101.96228
163   0.07937   0.89709   -0.40284   0.18177   0.07937   0.89709   -0.40284   0.18177   101.95923
164   0.07921   0.89718   -0.40349   0.18049   0.07921   0.89718   -0.40349   0.18049   102.07825
165   0.07894   0.89706   -0.40333   0.18131   0.07894   0.89706   -0.40333   0.18131   102.05078
166   0.07918   0.89715   -0.40281   0.18210   0.07918   0.89715   -0.40281   0.18210   101.96533
167   0.07931   0.89718   -0.40315   0.18076   0.07931   0.89718   -0.40315   0.18076   102.00806
168   0.07915   0.89727   -0.40315   0.18079   0.07915   0.89727   -0.40315   0.18079   102.05688
169   0.07911   0.89712   -0.40318   0.18107   0.07911   0.89712   -0.40318   0.18107   102.06909
170   0.07927   0.89709   -0.40297   0.18177   0.07927   0.89709   -0.40297   0.18177   101.95007
171   0.07916   0.89715   -0.40294   0.18192   0.07916   0.89715   -0.40294   0.18192   102.02332
172   0.07911   0.89709   -0.40373   0.18043   0.07911   0.89709   -0.40373   0.18043   102.05994
173   0.07913   0.89712   -0.40336   0.18116   0.07913   0.89712   -0.40336   0.18116   102.02332
174   0.07913   0.89694   -0.40345   0.18146   0.07913   0.89694   -0.40345   0.18146   101.96533
175   0.07914   0.89743   -0.40303   0.18003   0.07914   0.89743   -0.40303   0.18003   102.04468
176   0.07910   0.89737   -0.40266   0.18104   0.07910   0.89737   -0.40266   0.18104   102.02332
177   0.07919   0.89718   -0.40245   0.18216   0.07919   0.89718   -0.40245   0.18216   101.95313
178   0.07926   0.89706   -0.40382   0.18049   0.07926   0.89706   -0.40382   0.18049   101.89209
179   0.07910   0.89724   -0.40303   0.18070   0.07910   0.89724   -0.40303   0.18070   102.13928
180   0.07921   0.89727   -0.40260   0.18174   0.07921   0.89727   -0.40260   0.18174   101.99890
181   0.07928   0.89685   -0.40397   0.18122   0.07928   0.89685   -0.40397   0.18122   101.91650
182   0.07921   0.89694   -0.40382   0.18097   0.07921   0.89694   -0.40382   0.18097   102.02026
183   0.07916   0.89685   -0.40394   0.18091   0.07916   0.89685   -0.40394   0.18091   102.06909
184   0.07923   0.89679   -0.40394   0.18152   0.07923   0.89679   -0.40394   0.18152   102.02026
185   0.07927   0.89685   -0.40413   0.18033   0.07927   0.89685   -0.40413   0.18033   101.95007
186   0.07915   0.89709   -0.40376   0.18006   0.07915   0.89709   -0.40376   0.18006   102.05688
187   0.07911   0.89718   -0.40303   0.18097   0.07911   0.89718   -0.40303   0.18097   102.01111
188   0.07916   0.89718   -0.40361   0.18021   0.07916   0.89718   -0.40361   0.18021   101.92871
189   0.07917   0.89721   -0.40333   0.18018   0.07917   0.89721   -0.40333   0.18018   101.98669
190   0.07909   0.89703   -0.40382   0.18064   0.07909   0.89703   -0.40382   0.18064   102.08130
191   0.07918   0.89682   -0.40330   0.18253   0.07918   0.89682   -0.40330   0.18253   101.98669
192   0.07921   0.89682   -0.40349   0.18244   0.07921   0.89682   -0.40349   0.18244   101.96228
193   0.07918   0.89740   -0.40306   0.18052   0.07918   0.89740   -0.40306   0.18052   102.01111
194   0.07912   0.89703   -0.40306   0.18213   0.07912   0.89703   -0.40306   0.18213   102.06909
195   0.07924   0.89642   -0.40400   0.18311   0.07924   0.89642   -0.40400   0.18311   101.96228
196   0.07927   0.89694   -0.40339   0.18195   0.07927   0.89694   -0.40339   0.18195   101.99585
197   0.07917   0.89691   -0.40367   0.18119   0.07917   0.89691   -0.40367   0.18119   102.08130
198   0.07917   0.89752   -0.40217   0.18192   0.07917   0.89752   -0.40217   0.18192   102.01111
199   0.07924   0.89697   -0.40278   0.18284   0.07924   0.89697   -0.40278   0.18284   101.94092
200   0.07920   0.89758   -0.40178   0.18180   0.07920   0.89758   -0.40178   0.18180   102.01111
201   0.07907   0.89758   -0.40242   0.18067   0.07907   0.89758   -0.40242   0.18067   102.05994
202   0.07911   0.89721   -0.40269   0.18235   0.07911   0.89721   -0.40269   0.18235   102.03552
203   0.07921   0.89697   -0.40266   0.18259   0.07921   0.89697   -0.40266   0.18259   101.95313
204   0.07916   0.89697   -0.40321   0.18165   0.07916   0.89697   -0.40321   0.18165   101.99890
205   0.07913   0.89718   -0.40291   0.18155   0.07913   0.89718   -0.40291   0.18155   102.05688
206   0.07918   0.89737   -0.40223   0.18238   0.07918   0.89737   -0.40223   0.18238   101.96533
207   0.07926   0.89746   -0.40266   0.18049   0.07926   0.89746   -0.40266   0.18049   101.92871
208   0.07919   0.89749   -0.40257   0.18110   0.07919   0.89749   -0.40257   0.18110   102.01111
209   0.07919   0.89697   -0.40327   0.18235   0.07919   0.89697   -0.40327   0.18235   102.01111
210   0.07914   0.89654   -0.40342   0.18308   0.07914   0.89654   -0.40342   0.18308   102.04468
211   0.07922   0.89734   -0.40254   0.18143   0.07922   0.89734   -0.40254   0.18143   101.99890
212   0.07920   0.89718   -0.40318   0.18122   0.07920   0.89718   -0.40318   0.18122   102.02026
213   0.07921   0.89669   -0.40336   0.18299   0.07921   0.89669   -0.40336   0.18299   101.98669
214   0.07921   0.89724   -0.40284   0.18155   0.07921   0.89724   -0.40284   0.18155   101.96228
215   0.07906   0.89758   -0.40193   0.18198   0.07906   0.89758   -0.40193   0.18198   102.01416
216   0.07911   0.89697   -0.40370   0.18076   0.07911   0.89697   -0.40370   0.18076   102.08130
217   0.07918   0.89712   -0.40303   0.18183   0.07918   0.89712   -0.40303   0.18183   101.95313
218   0.07919   0.89712   -0.40321   0.18088   0.07919   0.89712   -0.40321   0.18088   101.98669
219   0.07912   0.89703   -0.40321   0.18201   0.07912   0.89703   -0.40321   0.18201   102.06909
220   0.07920   0.89743   -0.40245   0.18134   0.07920   0.89743   -0.40245   0.18134   102.02026
221   0.07927   0.89724   -0.40263   0.18223   0.07927   0.89724   -0.40263   0.18223   101.92871
222   0.07921   0.89685   -0.40358   0.18195   0.07921   0.89685   -0.40358   0.18195   101.99890
223   0.07916   0.89694   -0.40349   0.18168   0.07916   0.89694   -0.40349   0.18168   102.04468
224   0.07919   0.89706   -0.40297   0.18210   0.07919   0.89706   -0.40297   0.18210   102.02332
225   0.07930   0.89663   -0.40385   0.18259   0.07930   0.89663   -0.40385   0.18259   101.97144
226   0.07922   0.89749   -0.40184   0.18220   0.07922   0.89749   -0.40184   0.18220   102.00806
227   0.07914   0.89703   -0.40291   0.18195   0.07914   0.89703   -0.40291   0.18195   102.06909
228   0.07926   0.89712   -0.40233   0.18299   0.07926   0.89712   -0.40233   0.18299   101.98669
229   0.07922   0.89718   -0.40254   0.18247   0.07922   0.89718   -0.40254   0.18247   101.96228
230   0.07916   0.89721   -0.40327   0.18052   0.07916   0.89721   -0.40327   0.18052   102.02332
231   0.07911   0.89712   -0.40269   0.18213   0.07911   0.89712   -0.40269   0.18213   102.02332
232   0.07922   0.89673   -0.40318   0.18302   0.07922   0.89673   -0.40318   0.18302   101.98669
233   0.07922   0.89706   -0.40251   0.18293   0.07922   0.89706   -0.40251   0.18293   101.95313
234   0.07914   0.89709   -0.40327   0.18085   0.07914   0.89709   -0.40327   0.18085   102.02332
235   0.07913   0.89660   -0.40370   0.18262   0.07913   0.89660   -0.40370   0.18262   102.02332
236   0.07922   0.89712   -0.40257   0.18259   0.07922   0.89712   -0.40257   0.18259   101.99890
237   0.07924   0.89697   -0.40342   0.18116   0.07924   0.89697   -0.40342   0.18116   102.00806
238   0.07913   0.89673   -0.40407   0.18162   0.07913   0.89673   -0.40407   0.18162   102.06909
239   0.07923   0.89727   -0.40187   0.18357   0.07923   0.89727   -0.40187   0.18357   101.95007
240   0.07924   0.89724   -0.40297   0.18110   0.07924   0.89724   -0.40297   0.18110   101.99585
241   0.07921   0.89721   -0.40355   0.18027   0.07921   0.89721   -0.40355   0.18027   102.01111
242   0.07913   0.89685   -0.40367   0.18171   0.07913   0.89685   -0.40367   0.18171   102.01111
243   0.07914   0.89688   -0.40324   0.18271   0.07914   0.89688   -0.40324   0.18271   101.98975
244   0.07914   0.89715   -0.40257   0.18220   0.07914   0.89715   -0.40257   0.18220   102.05688
245   0.07913   0.89731   -0.40281   0.18091   0.07913   0.89731   -0.40281   0.18091   102.04773
246   0.07913   0.89703   -0.40303   0.18204   0.07913   0.89703   -0.40303   0.18204   101.96533
247   0.07898   0.89679   -0.40419   0.18091   0.07898   0.89679   -0.40419   0.18091   101.98059
248   0.07913   0.89694   -0.40321   0.18180   0.07913   0.89694   -0.40321   0.18180   102.04773
249   0.07923   0.89663   -0.40367   0.18262   0.07923   0.89663   -0.40367   0.18262   102.07825
250   0.07922   0.89673   -0.40336   0.18229   0.07922   0.89673   -0.40336   0.18229   102.00806
251   0.07914   0.89727   -0.40236   0.18189   0.07914   0.89727   -0.40236   0.18189   101.99890
252   0.07914   0.89715   -0.40297   0.18116   0.07914   0.89715   -0.40297   0.18116   102.06909
253   0.07917   0.89688   -0.40291   0.18305   0.07917   0.89688   -0.40291   0.18305   102.09045
254   0.07925   0.89666   -0.40339   0.18351   0.07925   0.89666   -0.40339   0.18351   101.93787
255   0.07919   0.89657   -0.40397   0.18210   0.07919   0.89657   -0.40397   0.18210   101.96533
256   0.07904   0.89682   -0.40339   0.18247   0.07904   0.89682   -0.40339   0.18247   102.05994
257   0.07912   0.89724   -0.40297   0.18119   0.07912   0.89724   -0.40297   0.18119   102.00195
258   0.07923   0.89792   -0.40114   0.18226   0.07923   0.89792   -0.40114   0.18226   101.87073
259   0.07916   0.89718   -0.40278   0.18171   0.07916   0.89718   -0.40278   0.18171   102.01111
260   0.07913   0.89752   -0.40196   0.18247   0.07913   0.89752   -0.40196   0.18247   102.06909
261   0.07917   0.89703   -0.40272   0.18281   0.07917   0.89703   -0.40272   0.18281   101.99890
262   0.07928   0.89651   -0.40370   0.18259   0.07928   0.89651   -0.40370   0.18259   101.97449
263   0.07928   0.89743   -0.40214   0.18226   0.07928   0.89743   -0.40214   0.18226   102.00806
264   0.07925   0.89688   -0.40312   0.18198   0.07925   0.89688   -0.40312   0.18198   102.03247
265   0.07925   0.89703   -0.40208   0.18387   0.07925   0.89703   -0.40208   0.18387   101.96228
266   0.07930   0.89669   -0.40367   0.18198   0.07930   0.89669   -0.40367   0.18198   101.98364
267   0.07934   0.89630   -0.40394   0.18342   0.07934   0.89630   -0.40394   0.18342   102.00500
268   0.07928   0.89682   -0.40312   0.18317   0.07928   0.89682   -0.40312   0.18317   101.99585
269   0.07918   0.89740   -0.40233   0.18229   0.07918   0.89740   -0.40233   0.18229   101.98669
270   0.07917   0.89721   -0.40199   0.18323   0.07917   0.89721   -0.40199   0.18323   101.99890
271   0.07920   0.89715   -0.40233   0.18262   0.07920   0.89715   -0.40233   0.18262   102.05688
272   0.07922   0.89727   -0.40245   0.18235   0.07922   0.89727   -0.40245   0.18235   101.96228
273   0.07923   0.89685   -0.40321   0.18220   0.07923   0.89685   -0.40321   0.18220   102.00806
274   0.07914   0.89721   -0.40217   0.18244   0.07914   0.89721   -0.40217   0.18244   102.03552
275   0.07918   0.89749   -0.40184   0.18262   0.07918   0.89749   -0.40184   0.18262   102.01111
276   0.07929   0.89721   -0.40208   0.18345   0.07929   0.89721   -0.40208   0.18345   101.91650
277   0.07923   0.89734   -0.40175   0.18302   0.07923   0.89734   -0.40175   0.18302   102.03247
278   0.07915   0.89764   -0.40184   0.18128   0.07915   0.89764   -0.40184   0.18128   102.11487
279   0.07924   0.89715   -0.40245   0.18241   0.07924   0.89715   -0.40245   0.18241   102.05383
280   0.07932   0.89773   -0.40123   0.18247   0.07932   0.89773   -0.40123   0.18247   101.91345
281   0.07920   0.89721   -0.40242   0.18265   0.07920   0.89721   -0.40242   0.18265   102.03247
282   0.07910   0.89755   -0.40165   0.18220   0.07910   0.89755   -0.40165   0.18220   102.09351
283   0.07921   0.89727   -0.40193   0.18308   0.07921   0.89727   -0.40193   0.18308   101.96228
284   0.07918   0.89819   -0.40022   0.18238   0.07918   0.89819   -0.40022   0.18238   101.90735
285   0.07914   0.89740   -0.40287   0.18082   0.07914   0.89740   -0.40287   0.18082   102.03552
286   0.07907   0.89727   -0.40236   0.18189   0.07907   0.89727   -0.40236   0.18189   102.09351
287   0.07921   0.89727   -0.40245   0.18235   0.07921   0.89727   -0.40245   0.18235   101.97449
288   0.07922   0.89770   -0.40095   0.18314   0.07922   0.89770   -0.40095   0.18314   101.94092
289   0.07920   0.89746   -0.40217   0.18213   0.07920   0.89746   -0.40217   0.18213   102.03247
290   0.07916   0.89776   -0.40117   0.18290   0.07916   0.89776   -0.40117   0.18290   102.04468
291   0.07923   0.89749   -0.40098   0.18418   0.07923   0.89749   -0.40098   0.18418   101.92871
292   0.07927   0.89697   -0.40287   0.18296   0.07927   0.89697   -0.40287   0.18296   101.93787
293   0.07919   0.89755   -0.40193   0.18223   0.07919   0.89755   -0.40193   0.18223   102.02332
294   0.07922   0.89688   -0.40239   0.18366   0.07922   0.89688   -0.40239   0.18366   102.05688
295   0.07924   0.89758   -0.40126   0.18305   0.07924   0.89758   -0.40126   0.18305   101.92871
296   0.07918   0.89709   -0.40251   0.18235   0.07918   0.89709   -0.40251   0.18235   101.99890
297   0.07914   0.89795   -0.40056   0.18284   0.07914   0.89795   -0.40056   0.18284   101.98975
298   0.07919   0.89767   -0.40141   0.18216   0.07919   0.89767   -0.40141   0.18216   101.95313
299   0.07918   0.89752   -0.40193   0.18195   0.07918   0.89752   -0.40193   0.18195   101.96533
300   0.07911   0.89761   -0.40184   0.18195   0.07911   0.89761   -0.40184   0.18195   102.00195
301   0.07919   0.89789   -0.40022   0.18415   0.07919   0.89789   -0.40022   0.18415   101.94092
302   0.07924   0.89749   -0.40110   0.18390   0.07924   0.89749   -0.40110   0.18390   101.96228
303   0.07922   0.89834   -0.39973   0.18284   0.07922   0.89834   -0.39973   0.18284   101.95313
304   0.07918   0.89721   -0.40226   0.18287   0.07918   0.89721   -0.40226   0.18287   102.04468
305   0.07925   0.89749   -0.40059   0.18491   0.07925   0.89749   -0.40059   0.18491   101.93787
306   0.07929   0.89758   -0.40068   0.18433   0.07929   0.89758   -0.40068   0.18433   101.90430
307   0.07918   0.89785   -0.40092   0.18299   0.07918   0.89785   -0.40092   0.18299   101.99890
308   0.07922   0.89718   -0.40168   0.18381   0.07922   0.89718   -0.40168   0.18381   102.05688
309   0.07925   0.89749   -0.40083   0.18470   0.07925   0.89749   -0.40083   0.18470   101.89209
310   0.07918   0.89764   -0.40175   0.18220   0.07918   0.89764   -0.40175   0.18220   101.95313
311   0.07909   0.89737   -0.40236   0.18238   0.07909   0.89737   -0.40236   0.18238   102.08130
312   0.07919   0.89761   -0.40132   0.18329   0.07919   0.89761   -0.40132   0.18329   101.99890
313   0.07922   0.89746   -0.40089   0.18415   0.07922   0.89746   -0.40089   0.18415   101.89514
314   0.07919   0.89737   -0.40196   0.18268   0.07919   0.89737   -0.40196   0.18268   102.02332
315   0.07912   0.89724   -0.40208   0.18317   0.07912   0.89724   -0.40208   0.18317   102.05994
316   0.07922   0.89749   -0.40184   0.18235   0.07922   0.89749   -0.40184   0.18235   102.00806
317   0.07928   0.89752   -0.40129   0.18357   0.07928   0.89752   -0.40129   0.18357   101.89209
318   0.07922   0.89727   -0.40202   0.18262   0.07922   0.89727   -0.40202   0.18262   102.03247
319   0.07921   0.89782   -0.40080   0.18247   0.07921   0.89782   -0.40080   0.18247   102.02026
320   0.07926   0.89761   -0.40135   0.18311   0.07926   0.89761   -0.40135   0.18311   101.92871
321   0.07930   0.89694   -0.40220   0.18403   0.07930   0.89694   -0.40220   0.18403   101.91650
322   0.07922   0.89752   -0.40245   0.18128   0.07922   0.89752   -0.40245   0.18128   102.04468
323   0.07917   0.89813   -0.40019   0.18320   0.07917   0.89813   -0.40019   0.18320   101.95313
324   0.07922   0.89752   -0.40101   0.18369   0.07922   0.89752   -0.40101   0.18369   101.92871
325   0.07913   0.89761   -0.40135   0.18274   0.07913   0.89761   -0.40135   0.18274   101.97754
326   0.07916   0.89743   -0.40156   0.18305   0.07916   0.89743   -0.40156   0.18305   102.03552
327   0.07912   0.89746   -0.40165   0.18281   0.07912   0.89746   -0.40165   0.18281   102.00195
328   0.07902   0.89813   -0.40025   0.18311   0.07902   0.89813   -0.40025   0.18311   101.91040
329   0.07909   0.89822   -0.40059   0.18186   0.07909   0.89822   -0.40059   0.18186   101.94397
330   0.07924   0.89837   -0.39940   0.18342   0.07924   0.89837   -0.39940   0.18342   101.99585
331   0.07928   0.89810   -0.39988   0.18403   0.07928   0.89810   -0.39988   0.18403   101.91650
332   0.07920   0.89810   -0.40004   0.18278   0.07920   0.89810   -0.40004   0.18278   101.96228
333   0.07920   0.89679   -0.40263   0.18409   0.07920   0.89679   -0.40263   0.18409   102.05688
334   0.07925   0.89804   -0.40019   0.18345   0.07925   0.89804   -0.40019   0.18345   101.95007
335   0.07933   0.89737   -0.40095   0.18467   0.07933   0.89737   -0.40095   0.18467   101.93787
336   0.07928   0.89767   -0.40083   0.18351   0.07928   0.89767   -0.40083   0.18351   101.99585
337   0.07920   0.89846   -0.39940   0.18302   0.07920   0.89846   -0.39940   0.18302   101.99890
338   0.07919   0.89810   -0.39952   0.18476   0.07919   0.89810   -0.39952   0.18476   101.90735
339   0.07919   0.89795   -0.40001   0.18421   0.07919   0.89795   -0.40001   0.18421   101.94092
340   0.07919   0.89773   -0.40123   0.18299   0.07919   0.89773   -0.40123   0.18299   101.98669
341   0.07913   0.89810   -0.40059   0.18265   0.07913   0.89810   -0.40059   0.18265   101.98975
342   0.07925   0.89776   -0.40010   0.18509   0.07925   0.89776   -0.40010   0.18509   101.91650
343   0.07924   0.89758   -0.40110   0.18387   0.07924   0.89758   -0.40110   0.18387   101.98669
344   0.07918   0.89789   -0.40062   0.18336   0.07918   0.89789   -0.40062   0.18336   102.05688
345   0.07922   0.89767   -0.40068   0.18400   0.07922   0.89767   -0.40068   0.18400   102.02026
346   0.07936   0.89795   -0.39979   0.18467   0.07936   0.89795   -0.39979   0.18467   101.88904
347   0.07942   0.89776   -0.40077   0.18351   0.07942   0.89776   -0.40077   0.18351   101.94702
348   0.07926   0.89850   -0.39872   0.18394   0.07926   0.89850   -0.39872   0.18394   102.02026
349   0.07914   0.89813   -0.39933   0.18448   0.07914   0.89813   -0.39933   0.18448   101.94092
350   0.07927   0.89850   -0.39869   0.18470   0.07927   0.89850   -0.39869   0.18470   101.84631
351   0.07928   0.89819   -0.39949   0.18427   0.07928   0.89819   -0.39949   0.18427   101.89209
352   0.07916   0.89804   -0.40022   0.18323   0.07916   0.89804   -0.40022   0.18323   101.99890
353   0.07921   0.89825   -0.39912   0.18494   0.07921   0.89825   -0.39912   0.18494   101.91650
354   0.07920   0.89816   -0.39940   0.18464   0.07920   0.89816   -0.39940   0.18464   101.92871
355   0.07919   0.89795   -0.40046   0.18339   0.07919   0.89795   -0.40046   0.18339   101.97449
356   0.07925   0.89810   -0.39900   0.18537   0.07925   0.89810   -0.39900   0.18537   101.97449
357   0.07928   0.89822   -0.39912   0.18458   0.07928   0.89822   -0.39912   0.18458   101.87988
358   0.07922   0.89840   -0.39860   0.18491   0.07922   0.89840   -0.39860   0.18491   101.91650
359   0.07917   0.89813   -0.39937   0.18461   0.07917   0.89813   -0.39937   0.18461   101.99890
360   0.07929   0.89804   -0.39943   0.18494   0.07929   0.89804   -0.39943   0.18494   101.92566
361   0.07930   0.89810   -0.39952   0.18451   0.07930   0.89810   -0.39952   0.18451   101.92566
362   0.07932   0.89843   -0.39900   0.18366   0.07932   0.89843   -0.39900   0.18366   101.92566
363   0.07941   0.89853   -0.39854   0.18451   0.07941   0.89853   -0.39854   0.18451   101.95923
364   0.07924   0.89837   -0.39915   0.18400   0.07924   0.89837   -0.39915   0.18400   101.91650
365   0.07895   0.89892   -0.39805   0.18320   0.07895   0.89892   -0.39805   0.18320   101.94702
366   0.07914   0.89843   -0.39949   0.18311   0.07914   0.89843   -0.39949   0.18311   101.98975
367   0.07926   0.89856   -0.39906   0.18366   0.07926   0.89856   -0.39906   0.18366   101.93787
368   0.07917   0.89859   -0.39891   0.18326   0.07917   0.89859   -0.39891   0.18326   101.88293
369   0.07910   0.89834   -0.39991   0.18235   0.07910   0.89834   -0.39991   0.18235   101.96533
370   0.07921   0.89822   -0.40089   0.18119   0.07921   0.89822   -0.40089   0.18119   102.02026
371   0.07925   0.89846   -0.39906   0.18372   0.07925   0.89846   -0.39906   0.18372   101.89209
372   0.07923   0.89840   -0.39897   0.18442   0.07923   0.89840   -0.39897   0.18442   101.89209
373   0.07915   0.89837   -0.39933   0.18329   0.07915   0.89837   -0.39933   0.18329   102.02332
374   0.07922   0.89880   -0.39854   0.18290   0.07922   0.89880   -0.39854   0.18290   101.96228
375   0.07926   0.89834   -0.39903   0.18400   0.07926   0.89834   -0.39903   0.18400   101.89209
376   0.07930   0.89825   -0.39909   0.18433   0.07930   0.89825   -0.39909   0.18433   101.87988
377   0.07922   0.89825   -0.39991   0.18274   0.07922   0.89825   -0.39991   0.18274   102.02026
378   0.07919   0.89871   -0.39903   0.18265   0.07919   0.89871   -0.39903   0.18265   101.96533
379   0.07925   0.89813   -0.39946   0.18433   0.07925   0.89813   -0.39946   0.18433   101.88293
380   0.07913   0.89798   -0.40010   0.18409   0.07913   0.89798   -0.40010   0.18409   101.87378
381   0.07910   0.89721   -0.40162   0.18430   0.07910   0.89721   -0.40162   0.18430   102.04773
382   0.07917   0.89810   -0.39860   0.18677   0.07917   0.89810   -0.39860   0.18677   101.89514
383   0.07922   0.89807   -0.39970   0.18436   0.07922   0.89807   -0.39970   0.18436   101.90430
384   0.07922   0.89779   -0.40052   0.18342   0.07922   0.89779   -0.40052   0.18342   101.94092
385   0.07915   0.89758   -0.40141   0.18296   0.07915   0.89758   -0.40141   0.18296   102.01111
386   0.07924   0.89798   -0.40013   0.18387   0.07924   0.89798   -0.40013   0.18387   101.90430
387   0.07926   0.89828   -0.39888   0.18513   0.07926   0.89828   -0.39888   0.18513   101.87988
388   0.07927   0.89816   -0.39988   0.18345   0.07927   0.89816   -0.39988   0.18345   101.92871
389   0.07921   0.89840   -0.39909   0.18400   0.07921   0.89840   -0.39909   0.18400   101.97449
390   0.07927   0.89892   -0.39808   0.18366   0.07927   0.89892   -0.39808   0.18366   101.87073
391   0.07924   0.89761   -0.40098   0.18326   0.07924   0.89761   -0.40098   0.18326   101.98669
392   0.07922   0.89807   -0.39982   0.18394   0.07922   0.89807   -0.39982   0.18394   101.94092
393   0.07916   0.89828   -0.39940   0.18406   0.07916   0.89828   -0.39940   0.18406   101.90735
394   0.07916   0.89819   -0.39964   0.18366   0.07916   0.89819   -0.39964   0.18366   101.92871
395   0.07920   0.89834   -0.39998   0.18247   0.07920   0.89834   -0.39998   0.18247   101.92871
396   0.07921   0.89792   -0.40016   0.18400   0.07921   0.89792   -0.40016   0.18400   101.97449
397   0.07923   0.89789   -0.40007   0.18476   0.07923   0.89789   -0.40007   0.18476   101.85852
398   0.07922   0.89798   -0.40049   0.18271   0.07922   0.89798   -0.40049   0.18271   101.94092
399   0.07919   0.89785   -0.40037   0.18369   0.07919   0.89785   -0.40037   0.18369   102.01111
400   0.07924   0.89804   -0.39985   0.18384   0.07924   0.89804   -0.39985   0.18384   101.92871
401   0.07932   0.89782   -0.40001   0.18476   0.07932   0.89782   -0.40001   0.18476   101.87988
402   0.07925   0.89840   -0.39961   0.18311   0.07925   0.89840   -0.39961   0.18311   101.92871
403   0.07917   0.89904   -0.39790   0.18329   0.07917   0.89904   -0.39790   0.18329   102.03247
404   0.07928   0.89871   -0.39827   0.18430   0.07928   0.89871   -0.39827   0.18430   101.87073
405   0.07928   0.89807   -0.39979   0.18451   0.07928   0.89807   -0.39979   0.18451   101.87988
406   0.07920   0.89850   -0.39952   0.18259   0.07920   0.89850   -0.39952   0.18259   101.99890
407   0.07910   0.89853   -0.39982   0.18189   0.07910   0.89853   -0.39982   0.18189   102.02332
408   0.07924   0.89837   -0.39918   0.18390   0.07924   0.89837   -0.39918   0.18390   101.88293
409   0.07923   0.89831   -0.39985   0.18253   0.07923   0.89831   -0.39985   0.18253   101.89209
410   0.07916   0.89843   -0.39952   0.18259   0.07916   0.89843   -0.39952   0.18259   101.97754
411   0.07915   0.89801   -0.40010   0.18366   0.07915   0.89801   -0.40010   0.18366   102.01111
412   0.07928   0.89834   -0.39970   0.18332   0.07928   0.89834   -0.39970   0.18332   101.89209
413   0.07929   0.89871   -0.39882   0.18265   0.07929   0.89871   -0.39882   0.18265   101.89209
414   0.07920   0.89859   -0.39964   0.18180   0.07920   0.89859   -0.39964   0.18180   101.98669
415   0.07924   0.89804   -0.40089   0.18186   0.07924   0.89804   -0.40089   0.18186   101.96228
416   0.07929   0.89816   -0.39991   0.18293   0.07929   0.89816   -0.39991   0.18293   101.91650
417   0.07925   0.89825   -0.40028   0.18201   0.07925   0.89825   -0.40028   0.18201   101.99585
418   0.07923   0.89801   -0.40107   0.18198   0.07923   0.89801   -0.40107   0.18198   101.99890
419   0.07922   0.89807   -0.40025   0.18287   0.07922   0.89807   -0.40025   0.18287   101.92871
420   0.07921   0.89843   -0.39982   0.18244   0.07921   0.89843   -0.39982   0.18244   101.94092
421   0.07913   0.89843   -0.40037   0.18055   0.07913   0.89843   -0.40037   0.18055   101.95313
422   0.07921   0.89843   -0.40001   0.18198   0.07921   0.89843   -0.40001   0.18198   101.96228
423   0.07922   0.89834   -0.39982   0.18284   0.07922   0.89834   -0.39982   0.18284   101.88293
424   0.07919   0.89856   -0.39933   0.18247   0.07919   0.89856   -0.39933   0.18247   101.98669
425   0.07919   0.89819   -0.40095   0.18061   0.07919   0.89819   -0.40095   0.18061   102.03247
426   0.07924   0.89795   -0.40083   0.18259   0.07924   0.89795   -0.40083   0.18259   101.95007
427   0.07926   0.89828   -0.39943   0.18339   0.07926   0.89828   -0.39943   0.18339   101.92871
428   0.07926   0.89813   -0.40071   0.18183   0.07926   0.89813   -0.40071   0.18183   102.02026
429   0.07936   0.89880   -0.39906   0.18204   0.07936   0.89880   -0.39906   0.18204   101.94702
430   0.07936   0.89868   -0.39912   0.18274   0.07936   0.89868   -0.39912   0.18274   101.85547
431   0.07925   0.89843   -0.40049   0.18091   0.07925   0.89843   -0.40049   0.18091   101.95007
432   0.07919   0.89843   -0.40049   0.18067   0.07919   0.89843   -0.40049   0.18067   102.04468
433   0.07924   0.89828   -0.39973   0.18308   0.07924   0.89828   -0.39973   0.18308   101.97449
434   0.07926   0.89859   -0.39912   0.18308   0.07926   0.89859   -0.39912   0.18308   101.87988
435   0.07913   0.89825   -0.40068   0.18107   0.07913   0.89825   -0.40068   0.18107   101.96533
436   0.07913   0.89846   -0.40019   0.18094   0.07913   0.89846   -0.40019   0.18094   102.05688
437   0.07919   0.89874   -0.39891   0.18238   0.07919   0.89874   -0.39891   0.18238   101.92871
438   0.07929   0.89874   -0.39933   0.18229   0.07929   0.89874   -0.39933   0.18229   101.84631
439   0.07920   0.89889   -0.39943   0.18076   0.07920   0.89889   -0.39943   0.18076   101.95313
440   0.07917   0.89868   -0.39991   0.18107   0.07917   0.89868   -0.39991   0.18107   102.02332
441   0.07931   0.89865   -0.39955   0.18198   0.07931   0.89865   -0.39955   0.18198   101.87988
442   0.07929   0.89834   -0.40010   0.18207   0.07929   0.89834   -0.40010   0.18207   101.90430
443   0.07923   0.89843   -0.40013   0.18155   0.07923   0.89843   -0.40013   0.18155   101.97449
444   0.07922   0.89822   -0.40037   0.18192   0.07922   0.89822   -0.40037   0.18192   101.99890
445   0.07933   0.89837   -0.40031   0.18171   0.07933   0.89837   -0.40031   0.18171   101.91345
446   0.07916   0.89846   -0.40031   0.18046   0.07916   0.89846   -0.40031   0.18046   101.92871
447   0.07891   0.89843   -0.40022   0.18085   0.07891   0.89843   -0.40022   0.18085   102.00500
448   0.07909   0.89877   -0.39927   0.18159   0.07909   0.89877   -0.39927   0.18159   101.97754
449   0.07923   0.89792   -0.40074   0.18284   0.07923   0.89792   -0.40074   0.18284   101.94092
450   0.07921   0.89795   -0.40135   0.18119   0.07921   0.89795   -0.40135   0.18119   102.02026
451   0.07901   0.89807   -0.40092   0.18140   0.07901   0.89807   -0.40092   0.18140   102.05994
452   0.07919   0.89770   -0.40077   0.18375   0.07919   0.89770   -0.40077   0.18375   101.96533
453   0.07926   0.89828   -0.39998   0.18226   0.07926   0.89828   -0.39998   0.18226   101.95007
454   0.07921   0.89816   -0.40080   0.18104   0.07921   0.89816   -0.40080   0.18104   102.01111
455   0.07915   0.89865   -0.39912   0.18299   0.07915   0.89865   -0.39912   0.18299   101.96533
456   0.07922   0.89831   -0.40056   0.18122   0.07922   0.89831   -0.40056   0.18122   101.90430
457   0.07927   0.89828   -0.40043   0.18159   0.07927   0.89828   -0.40043   0.18159   101.97449
458   0.07920   0.89892   -0.39937   0.18088   0.07920   0.89892   -0.39937   0.18088   101.96228
459   0.07924   0.89795   -0.40083   0.18259   0.07924   0.89795   -0.40083   0.18259   101.95007
460   0.07922   0.89819   -0.40010   0.18256   0.07922   0.89819   -0.40010   0.18256   101.94092
461   0.07912   0.89782   -0.40196   0.18039   0.07912   0.89782   -0.40196   0.18039   102.04773
462   0.07913   0.89782   -0.40181   0.18049   0.07913   0.89782   -0.40181   0.18049   102.02332
463   0.07930   0.89850   -0.39943   0.18265   0.07930   0.89850   -0.39943   0.18265   101.87988
464   0.07926   0.89801   -0.40129   0.18104   0.07926   0.89801   -0.40129   0.18104   101.96228
465   0.07911   0.89785   -0.40156   0.18116   0.07911   0.89785   -0.40156   0.18116   102.04773
466   0.07921   0.89834   -0.40010   0.18220   0.07921   0.89834   -0.40010   0.18220   101.96228
467   0.07935   0.89801   -0.40107   0.18155   0.07935   0.89801   -0.40107   0.18155   101.89209
468   0.07928   0.89825   -0.40046   0.18192   0.07928   0.89825   -0.40046   0.18192   101.97449
469   0.07919   0.89840   -0.39998   0.18149   0.07919   0.89840   -0.39998   0.18149   102.06909
470   0.07926   0.89792   -0.40065   0.18308   0.07926   0.89792   -0.40065   0.18308   101.95007
471   0.07933   0.89792   -0.40046   0.18311   0.07933   0.89792   -0.40046   0.18311   101.89209
472   0.07928   0.89782   -0.40144   0.18162   0.07928   0.89782   -0.40144   0.18162   101.98364
473   0.07922   0.89792   -0.40153   0.18116   0.07922   0.89792   -0.40153   0.18116   102.03247
474   0.07926   0.89850   -0.40016   0.18140   0.07926   0.89850   -0.40016   0.18140   101.89209
475   0.07924   0.89822   -0.40025   0.18220   0.07924   0.89822   -0.40025   0.18220   101.91650
476   0.07911   0.89819   -0.40052   0.18152   0.07911   0.89819   -0.40052   0.18152   102.03552
477   0.07917   0.89846   -0.40037   0.18131   0.07917   0.89846   -0.40037   0.18131   101.96533
478   0.07919   0.89810   -0.40156   0.18021   0.07919   0.89810   -0.40156   0.18021   101.92871
479   0.07915   0.89816   -0.40022   0.18229   0.07915   0.89816   -0.40022   0.18229   101.95313
480   0.07917   0.89810   -0.40141   0.18064   0.07917   0.89810   -0.40141   0.18064   102.02332
481   0.07922   0.89837   -0.40028   0.18162   0.07922   0.89837   -0.40028   0.18162   101.92871
482   0.07925   0.89801   -0.40165   0.18027   0.07925   0.89801   -0.40165   0.18027   101.98669
483   0.07921   0.89828   -0.40110   0.18030   0.07921   0.89828   -0.40110   0.18030   101.96228
484   0.07922   0.89819   -0.40132   0.18009   0.07922   0.89819   -0.40132   0.18009   101.99890
485   0.07930   0.89792   -0.40132   0.18131   0.07930   0.89792   -0.40132   0.18131   101.98364
486   0.07926   0.89813   -0.40095   0.18082   0.07926   0.89813   -0.40095   0.18082   101.99585
487   0.07921   0.89743   -0.40278   0.18036   0.07921   0.89743   -0.40278   0.18036   102.04468
488   0.07918   0.89761   -0.40251   0.18061   0.07918   0.89761   -0.40251   0.18061   101.98669
489   0.07919   0.89831   -0.40040   0.18171   0.07919   0.89831   -0.40040   0.18171   101.89514
490   0.07909   0.89785   -0.40211   0.18015   0.07909   0.89785   -0.40211   0.18015   102.04773
491   0.07912   0.89822   -0.40101   0.18030   0.07912   0.89822   -0.40101   0.18030   102.06909
492   0.07915   0.89801   -0.40114   0.18122   0.07915   0.89801   -0.40114   0.18122   101.92871
493   0.07922   0.89715   -0.40312   0.18107   0.07922   0.89715   -0.40312   0.18107   101.97449
494   0.07913   0.89755   -0.40205   0.18122   0.07913   0.89755   -0.40205   0.18122   102.02332
495   0.07917   0.89731   -0.40291   0.18113   0.07917   0.89731   -0.40291   0.18113   102.06909
496   0.07923   0.89782   -0.40104   0.18244   0.07923   0.89782   -0.40104   0.18244   101.90430
497   0.07922   0.89734   -0.40220   0.18210   0.07922   0.89734   -0.40220   0.18210   101.96228
498   0.07915   0.89694   -0.40385   0.18039   0.07915   0.89694   -0.40385   0.18039   102.08130
499   0.07921   0.89731   -0.40294   0.18088   0.07921   0.89731   -0.40294   0.18088   102.03247
500   0.07930   0.89706   -0.40254   0.18278   0.07930   0.89706   -0.40254   0.18278   101.98364
501   0.07922   0.89767   -0.40214   0.18134   0.07922   0.89767   -0.40214   0.18134   101.99890
502   0.07912   0.89782   -0.40226   0.17972   0.07912   0.89782   -0.40226   0.17972   102.08130
503   0.07912   0.89752   -0.40266   0.18067   0.07912   0.89752   -0.40266   0.18067   102.01111
504   0.07917   0.89743   -0.40257   0.18110   0.07917   0.89743   -0.40257   0.18110   101.96533
505   0.07916   0.89743   -0.40254   0.18091   0.07916   0.89743   -0.40254   0.18091   102.01111
506   0.07910   0.89752   -0.40260   0.18058   0.07910   0.89752   -0.40260   0.18058   102.05994
507   0.07920   0.89727   -0.40242   0.18220   0.07920   0.89727   -0.40242   0.18220   101.98669
508   0.07921   0.89770   -0.40263   0.17927   0.07921   0.89770   -0.40263   0.17927   101.98669
509   0.07917   0.89718   -0.40309   0.18116   0.07917   0.89718   -0.40309   0.18116   102.03247
510   0.07916   0.89694   -0.40291   0.18274   0.07916   0.89694   -0.40291   0.18274   102.05688
511   0.07922   0.89724   -0.40269   0.18122   0.07922   0.89724   -0.40269   0.18122   101.97449
512   0.07921   0.89691   -0.40373   0.18101   0.07921   0.89691   -0.40373   0.18101   102.01111
513   0.07920   0.89697   -0.40345   0.18119   0.07920   0.89697   -0.40345   0.18119   102.03247
514   0.07922   0.89752   -0.40147   0.18299   0.07922   0.89752   -0.40147   0.18299   101.95007
515   0.07919   0.89749   -0.40281   0.17994   0.07919   0.89749   -0.40281   0.17994   101.98669
516   0.07913   0.89755   -0.40254   0.18043   0.07913   0.89755   -0.40254   0.18043   102.08130
517   0.07906   0.89740   -0.40248   0.18159   0.07906   0.89740   -0.40248   0.18159   102.03552
518   0.07918   0.89715   -0.40281   0.18195   0.07918   0.89715   -0.40281   0.18195   101.96533
519   0.07912   0.89752   -0.40266   0.18067   0.07912   0.89752   -0.40266   0.18067   102.01111
520   0.07911   0.89761   -0.40275   0.17954   0.07911   0.89761   -0.40275   0.17954   102.04773
521   0.07915   0.89740   -0.40239   0.18155   0.07915   0.89740   -0.40239   0.18155   102.01111
522   0.07922   0.89734   -0.40245   0.18204   0.07922   0.89734   -0.40245   0.18204   101.90430
523   0.07917   0.89624   -0.40571   0.17994   0.07917   0.89624   -0.40571   0.17994   102.03247
524   0.07911   0.89700   -0.40352   0.18073   0.07911   0.89700   -0.40352   0.18073   102.09351
525   0.07921   0.89718   -0.40291   0.18122   0.07921   0.89718   -0.40291   0.18122   102.01111
526   0.07925   0.89682   -0.40379   0.18146   0.07925   0.89682   -0.40379   0.18146   101.93787
527   0.07910   0.89697   -0.40373   0.18052   0.07910   0.89697   -0.40373   0.18052   102.05994
528   0.07897   0.89807   -0.40153   0.18003   0.07897   0.89807   -0.40153   0.18003   102.05078
529   0.07914   0.89715   -0.40303   0.18125   0.07914   0.89715   -0.40303   0.18125   101.99890
530   0.07922   0.89712   -0.40281   0.18174   0.07922   0.89712   -0.40281   0.18174   101.96228
531   0.07908   0.89651   -0.40513   0.18049   0.07908   0.89651   -0.40513   0.18049   102.05994
532   0.07913   0.89721   -0.40294   0.18146   0.07913   0.89721   -0.40294   0.18146   102.02332
533   0.07913   0.89718   -0.40324   0.18085   0.07913   0.89718   -0.40324   0.18085   101.96533
534   0.07921   0.89669   -0.40391   0.18165   0.07921   0.89669   -0.40391   0.18165   102.02026
535   0.07917   0.89709   -0.40330   0.18110   0.07917   0.89709   -0.40330   0.18110   102.08130
536   0.07922   0.89703   -0.40269   0.18238   0.07922   0.89703   -0.40269   0.18238   101.97449
537   0.07923   0.89691   -0.40391   0.18055   0.07923   0.89691   -0.40391   0.18055   101.99890
538   0.07919   0.89676   -0.40440   0.18039   0.07919   0.89676   -0.40440   0.18039   102.04468
539   0.07922   0.89630   -0.40507   0.18079   0.07922   0.89630   -0.40507   0.18079   102.11487
540   0.07927   0.89703   -0.40339   0.18134   0.07927   0.89703   -0.40339   0.18134   101.95007
541   0.07921   0.89691   -0.40352   0.18165   0.07921   0.89691   -0.40352   0.18165   102.01111
542   0.07922   0.89703   -0.40391   0.18046   0.07922   0.89703   -0.40391   0.18046   102.03247
543   0.07921   0.89618   -0.40516   0.18204   0.07921   0.89618   -0.40516   0.18204   101.99890
544   0.07916   0.89654   -0.40455   0.18107   0.07916   0.89654   -0.40455   0.18107   101.99890
545   0.07910   0.89740   -0.40281   0.18036   0.07910   0.89740   -0.40281   0.18036   102.03552
546   0.07917   0.89740   -0.40303   0.18058   0.07917   0.89740   -0.40303   0.18058   102.04468
547   0.07933   0.89648   -0.40397   0.18265   0.07933   0.89648   -0.40397   0.18265   102.00806
548   0.07922   0.89731   -0.40236   0.18259   0.07922   0.89731   -0.40236   0.18259   101.99890
549   0.07903   0.89706   -0.40330   0.18137   0.07903   0.89706   -0.40330   0.18137   102.09656
550   0.07913   0.89734   -0.40315   0.18033   0.07913   0.89734   -0.40315   0.18033   102.03552
551   0.07933   0.89682   -0.40352   0.18177   0.07933   0.89682   -0.40352   0.18177   101.95007
552   0.07931   0.89636   -0.40425   0.18250   0.07931   0.89636   -0.40425   0.18250   102.02942
553   0.07920   0.89724   -0.40217   0.18259   0.07920   0.89724   -0.40217   0.18259   102.07825
554   0.07917   0.89691   -0.40321   0.18180   0.07917   0.89691   -0.40321   0.18180   102.03247
555   0.07933   0.89749   -0.40272   0.18046   0.07933   0.89749   -0.40272   0.18046   101.93787
556   0.07924   0.89712   -0.40303   0.18162   0.07924   0.89712   -0.40303   0.18162   102.04468
557   0.07913   0.89666   -0.40461   0.18076   0.07913   0.89666   -0.40461   0.18076   102.11487
558   0.07911   0.89703   -0.40336   0.18162   0.07911   0.89703   -0.40336   0.18162   101.97754
559   0.07919   0.89697   -0.40342   0.18165   0.07919   0.89697   -0.40342   0.18165   101.90735
560   0.07921   0.89749   -0.40275   0.18039   0.07921   0.89749   -0.40275   0.18039   102.02026
561   0.07912   0.89718   -0.40223   0.18281   0.07912   0.89718   -0.40223   0.18281   102.04773
562   0.07922   0.89691   -0.40294   0.18326   0.07922   0.89691   -0.40294   0.18326   101.98669
563   0.07932   0.89688   -0.40345   0.18198   0.07932   0.89688   -0.40345   0.18198   101.97144
564   0.07923   0.89682   -0.40315   0.18262   0.07923   0.89682   -0.40315   0.18262   102.06604
565   0.07899   0.89688   -0.40382   0.18082   0.07899   0.89688   -0.40382   0.18082   102.03857
566   0.07917   0.89776   -0.40205   0.18064   0.07917   0.89776   -0.40205   0.18064   101.97754
567   0.07931   0.89715   -0.40321   0.18073   0.07931   0.89715   -0.40321   0.18073   101.98364
568   0.07917   0.89703   -0.40345   0.18125   0.07917   0.89703   -0.40345   0.18125   102.01111
569   0.07913   0.89718   -0.40284   0.18131   0.07913   0.89718   -0.40284   0.18131   102.01111
570   0.07916   0.89697   -0.40312   0.18232   0.07916   0.89697   -0.40312   0.18232   101.99890
571   0.07912   0.89731   -0.40248   0.18159   0.07912   0.89731   -0.40248   0.18159   102.03552
572   0.07906   0.89706   -0.40330   0.18174   0.07906   0.89706   -0.40330   0.18174   102.04773
573   0.07914   0.89673   -0.40400   0.18174   0.07914   0.89673   -0.40400   0.18174   101.95313
574   0.07909   0.89691   -0.40333   0.18165   0.07909   0.89691   -0.40333   0.18165   102.02332
575   0.07910   0.89743   -0.40291   0.18067   0.07910   0.89743   -0.40291   0.18067   102.04773
576   0.07917   0.89700   -0.40312   0.18226   0.07917   0.89700   -0.40312   0.18226   101.97754
577   0.07922   0.89715   -0.40278   0.18207   0.07922   0.89715   -0.40278   0.18207   101.95313
578   0.07915   0.89651   -0.40397   0.18229   0.07915   0.89651   -0.40397   0.18229   102.02332
579   0.07913   0.89676   -0.40349   0.18278   0.07913   0.89676   -0.40349   0.18278   102.08130
580   0.07926   0.89703   -0.40248   0.18329   0.07926   0.89703   -0.40248   0.18329   101.96228
581   0.07922   0.89718   -0.40327   0.18079   0.07922   0.89718   -0.40327   0.18079   101.97449
582   0.07919   0.89682   -0.40361   0.18165   0.07919   0.89682   -0.40361   0.18165   102.04468
583   0.07920   0.89758   -0.40275   0.18046   0.07920   0.89758   -0.40275   0.18046   102.04468
584   0.07921   0.89709   -0.40245   0.18293   0.07921   0.89709   -0.40245   0.18293   101.97449
585   0.07916   0.89679   -0.40367   0.18201   0.07916   0.89679   -0.40367   0.18201   102.01111
586   0.07906   0.89663   -0.40461   0.18082   0.07906   0.89663   -0.40461   0.18082   102.08435
587   0.07911   0.89666   -0.40352   0.18274   0.07911   0.89666   -0.40352   0.18274   102.01111
588   0.07917   0.89712   -0.40272   0.18213   0.07917   0.89712   -0.40272   0.18213   101.94092
589   0.07917   0.89688   -0.40291   0.18299   0.07917   0.89688   -0.40291   0.18299   101.96533
590   0.07910   0.89712   -0.40294   0.18226   0.07910   0.89712   -0.40294   0.18226   102.06909
591   0.07916   0.89740   -0.40196   0.18296   0.07916   0.89740   -0.40196   0.18296   102.01111
592   0.07922   0.89709   -0.40260   0.18299   0.07922   0.89709   -0.40260   0.18299   101.96228
593   0.07919   0.89718   -0.40272   0.18189   0.07919   0.89718   -0.40272   0.18189   101.99890
594   0.07917   0.89694   -0.40327   0.18168   0.07917   0.89694   -0.40327   0.18168   102.09045
595   0.07919   0.89673   -0.40281   0.18390   0.07919   0.89673   -0.40281   0.18390   102.02332
596   0.07925   0.89663   -0.40373   0.18256   0.07925   0.89663   -0.40373   0.18256   101.98669
597   0.07917   0.89669   -0.40352   0.18238   0.07917   0.89669   -0.40352   0.18238   102.05688
598   0.07917   0.89691   -0.40321   0.18195   0.07917   0.89691   -0.40321   0.18195   102.03247
599   0.07914   0.89685   -0.40278   0.18384   0.07914   0.89685   -0.40278   0.18384   101.95313
600   0.07909   0.89752   -0.40239   0.18104   0.07909   0.89752   -0.40239   0.18104   101.98975
601   0.07916   0.89734   -0.40272   0.18137   0.07916   0.89734   -0.40272   0.18137   102.04468
602   0.07917   0.89724   -0.40269   0.18192   0.07917   0.89724   -0.40269   0.18192   101.99890
603   0.07915   0.89706   -0.40248   0.18317   0.07915   0.89706   -0.40248   0.18317   102.02332
604   0.07913   0.89709   -0.40361   0.18058   0.07913   0.89709   -0.40361   0.18058   102.03552
605   0.07916   0.89755   -0.40187   0.18192   0.07916   0.89755   -0.40187   0.18192   101.99890
606   0.07922   0.89721   -0.40226   0.18302   0.07922   0.89721   -0.40226   0.18302   101.98669
607   0.07920   0.89743   -0.40178   0.18241   0.07920   0.89743   -0.40178   0.18241   101.98669
608   0.07915   0.89703   -0.40284   0.18238   0.07915   0.89703   -0.40284   0.18238   102.06909
609   0.07922   0.89700   -0.40236   0.18332   0.07922   0.89700   -0.40236   0.18332   101.97449
610   0.07930   0.89727   -0.40175   0.18342   0.07930   0.89727   -0.40175   0.18342   101.86768
611   0.07917   0.89721   -0.40272   0.18146   0.07917   0.89721   -0.40272   0.18146   102.02332
612   0.07913   0.89743   -0.40156   0.18348   0.07913   0.89743   -0.40156   0.18348   102.02332
613   0.07915   0.89773   -0.40175   0.18168   0.07915   0.89773   -0.40175   0.18168   101.92871
614   0.07918   0.89721   -0.40242   0.18259   0.07918   0.89721   -0.40242   0.18259   101.92871
615   0.07911   0.89709   -0.40281   0.18253   0.07911   0.89709   -0.40281   0.18253   102.05994
616   0.07912   0.89669   -0.40355   0.18256   0.07912   0.89669   -0.40355   0.18256   102.09351
617   0.07922   0.89718   -0.40181   0.18387   0.07922   0.89718   -0.40181   0.18387   101.96228
618   0.07921   0.89709   -0.40281   0.18256   0.07921   0.89709   -0.40281   0.18256   101.97449
619   0.07915   0.89755   -0.40248   0.18064   0.07915   0.89755   -0.40248   0.18064   102.06909
620   0.07919   0.89779   -0.40138   0.18204   0.07919   0.89779   -0.40138   0.18204   101.99890
621   0.07924   0.89727   -0.40226   0.18238   0.07924   0.89727   -0.40226   0.18238   101.95007
622   0.07922   0.89718   -0.40287   0.18155   0.07922   0.89718   -0.40287   0.18155   102.00806
623   0.07917   0.89779   -0.40080   0.18311   0.07917   0.89779   -0.40080   0.18311   102.03247
624   0.07922   0.89761   -0.40211   0.18116   0.07922   0.89761   -0.40211   0.18116   101.96228
625   0.07922   0.89767   -0.40132   0.18256   0.07922   0.89767   -0.40132   0.18256   101.95007
626   0.07916   0.89737   -0.40184   0.18287   0.07916   0.89737   -0.40184   0.18287   102.02332
627   0.07908   0.89764   -0.40217   0.18122   0.07908   0.89764   -0.40217   0.18122   102.02332
628   0.07925   0.89712   -0.40272   0.18265   0.07925   0.89712   -0.40272   0.18265   101.96228
629   0.07928   0.89731   -0.40254   0.18122   0.07928   0.89731   -0.40254   0.18122   101.97449
630   0.07916   0.89752   -0.40223   0.18134   0.07916   0.89752   -0.40223   0.18134   102.01111
631   0.07915   0.89767   -0.40138   0.18262   0.07915   0.89767   -0.40138   0.18262   101.97754
632   0.07918   0.89706   -0.40236   0.18354   0.07918   0.89706   -0.40236   0.18354   101.97449
633   0.07920   0.89746   -0.40172   0.18268   0.07920   0.89746   -0.40172   0.18268   101.99890
634   0.07915   0.89724   -0.40263   0.18210   0.07915   0.89724   -0.40263   0.18210   102.04468
635   0.07920   0.89676   -0.40330   0.18284   0.07920   0.89676   -0.40330   0.18284   102.01111
636   0.07921   0.89703   -0.40284   0.18253   0.07921   0.89703   -0.40284   0.18253   101.99890
637   0.07918   0.89758   -0.40229   0.18076   0.07918   0.89758   -0.40229   0.18076   102.04468
638   0.07916   0.89743   -0.40181   0.18244   0.07916   0.89743   -0.40181   0.18244   101.99890
639   0.07924   0.89706   -0.40245   0.18271   0.07924   0.89706   -0.40245   0.18271   101.98669
640   0.07916   0.89721   -0.40233   0.18296   0.07916   0.89721   -0.40233   0.18296   101.99890
641   0.07902   0.89746   -0.40242   0.18140   0.07902   0.89746   -0.40242   0.18140   102.04773
642   0.07918   0.89697   -0.40260   0.18302   0.07918   0.89697   -0.40260   0.18302   101.99890
643   0.07919   0.89676   -0.40284   0.18394   0.07919   0.89676   -0.40284   0.18394   101.94092
644   0.07913   0.89709   -0.40266   0.18293   0.07913   0.89709   -0.40266   0.18293   102.02332
645   0.07911   0.89779   -0.40086   0.18320   0.07911   0.89779   -0.40086   0.18320   102.04773
646   0.07911   0.89767   -0.40132   0.18290   0.07911   0.89767   -0.40132   0.18290   101.93176
647   0.07901   0.89804   -0.40043   0.18284   0.07901   0.89804   -0.40043   0.18284   101.88599
648   0.07921   0.89669   -0.40272   0.18421   0.07921   0.89669   -0.40272   0.18421   102.05688
649   0.07926   0.89727   -0.40260   0.18195   0.07926   0.89727   -0.40260   0.18195   102.05383
650   0.07922   0.89691   -0.40251   0.18369   0.07922   0.89691   -0.40251   0.18369   101.92871
651   0.07917   0.89734   -0.40248   0.18183   0.07917   0.89734   -0.40248   0.18183   101.95313
652   0.07918   0.89752   -0.40199   0.18195   0.07918   0.89752   -0.40199   0.18195   102.02332
653   0.07917   0.89752   -0.40126   0.18363   0.07917   0.89752   -0.40126   0.18363   102.02332
654   0.07917   0.89715   -0.40211   0.18296   0.07917   0.89715   -0.40211   0.18296   101.97754
655   0.07909   0.89782   -0.40101   0.18229   0.07909   0.89782   -0.40101   0.18229   101.95618
656   0.07909   0.89776   -0.40129   0.18284   0.07909   0.89776   -0.40129   0.18284   102.01416
657   0.07912   0.89773   -0.40098   0.18317   0.07912   0.89773   -0.40098   0.18317   102.00195
658   0.07922   0.89776   -0.40104   0.18259   0.07922   0.89776   -0.40104   0.18259   101.97449
659   0.07917   0.89822   -0.40104   0.18073   0.07917   0.89822   -0.40104   0.18073   101.95313
660   0.07915   0.89749   -0.40129   0.18412   0.07915   0.89749   -0.40129   0.18412   102.01111
661   0.07923   0.89764   -0.40117   0.18336   0.07923   0.89764   -0.40117   0.18336   101.92871
662   0.07922   0.89764   -0.40190   0.18168   0.07922   0.89764   -0.40190   0.18168   101.95007
663   0.07927   0.89770   -0.40168   0.18183   0.07927   0.89770   -0.40168   0.18183   102.02026
664   0.07932   0.89792   -0.40025   0.18326   0.07932   0.89792   -0.40025   0.18326   101.96228
665   0.07929   0.89789   -0.40083   0.18290   0.07929   0.89789   -0.40083   0.18290   101.93787
666   0.07921   0.89779   -0.40098   0.18274   0.07921   0.89779   -0.40098   0.18274   101.99890
667   0.07922   0.89761   -0.40086   0.18406   0.07922   0.89761   -0.40086   0.18406   102.04468
668   0.07922   0.89801   -0.40028   0.18348   0.07922   0.89801   -0.40028   0.18348   101.89514
669   0.07921   0.89789   -0.40025   0.18366   0.07921   0.89789   -0.40025   0.18366   101.94092
670   0.07919   0.89785   -0.40114   0.18220   0.07919   0.89785   -0.40114   0.18220   101.98669
671   0.07918   0.89798   -0.40052   0.18290   0.07918   0.89798   -0.40052   0.18290   101.96533
672   0.07929   0.89767   -0.40117   0.18308   0.07929   0.89767   -0.40117   0.18308   101.85852
673   0.07922   0.89804   -0.40043   0.18238   0.07922   0.89804   -0.40043   0.18238   101.95007
674   0.07916   0.89792   -0.40031   0.18308   0.07916   0.89792   -0.40031   0.18308   102.05688
675   0.07924   0.89792   -0.40031   0.18339   0.07924   0.89792   -0.40031   0.18339   101.95007
676   0.07930   0.89764   -0.40098   0.18314   0.07930   0.89764   -0.40098   0.18314   101.91650
677   0.07923   0.89776   -0.40138   0.18192   0.07923   0.89776   -0.40138   0.18192   101.98669
678   0.07919   0.89767   -0.40098   0.18317   0.07919   0.89767   -0.40098   0.18317   102.09045
679   0.07928   0.89819   -0.39952   0.18390   0.07928   0.89819   -0.39952   0.18390   101.90430
680   0.07927   0.89828   -0.39979   0.18259   0.07927   0.89828   -0.39979   0.18259   101.91650
681   0.07916   0.89804   -0.40068   0.18180   0.07916   0.89804   -0.40068   0.18180   101.96533
682   0.07909   0.89776   -0.40132   0.18207   0.07909   0.89776   -0.40132   0.18207   102.03552
683   0.07919   0.89822   -0.39973   0.18357   0.07919   0.89822   -0.39973   0.18357   101.91650
684   0.07921   0.89825   -0.40001   0.18293   0.07921   0.89825   -0.40001   0.18293   101.95313
685   0.07916   0.89859   -0.39933   0.18268   0.07916   0.89859   -0.39933   0.18268   101.96533
686   0.07918   0.89856   -0.39955   0.18189   0.07918   0.89856   -0.39955   0.18189   101.98669
687   0.07922   0.89801   -0.40031   0.18287   0.07922   0.89801   -0.40031   0.18287   101.91650
688   0.07924   0.89804   -0.40004   0.18354   0.07924   0.89804   -0.40004   0.18354   101.95007
689   0.07918   0.89795   -0.40065   0.18281   0.07918   0.89795   -0.40065   0.18281   102.02332
690   0.07922   0.89792   -0.39979   0.18451   0.07922   0.89792   -0.39979   0.18451   101.95007
691   0.07925   0.89804   -0.40022   0.18296   0.07925   0.89804   -0.40022   0.18296   101.92871
692   0.07924   0.89822   -0.40016   0.18271   0.07924   0.89822   -0.40016   0.18271   101.96228
693   0.07926   0.89819   -0.40007   0.18241   0.07926   0.89819   -0.40007   0.18241   101.96228
694   0.07927   0.89810   -0.40028   0.18320   0.07927   0.89810   -0.40028   0.18320   101.90430
695   0.07920   0.89837   -0.39940   0.18348   0.07920   0.89837   -0.39940   0.18348   101.92871
696   0.07909   0.89795   -0.40040   0.18311   0.07909   0.89795   -0.40040   0.18311   102.01416
697   0.07921   0.89816   -0.39958   0.18427   0.07921   0.89816   -0.39958   0.18427   101.92871
698   0.07922   0.89801   -0.40071   0.18216   0.07922   0.89801   -0.40071   0.18216   101.90430
699   0.07914   0.89807   -0.39970   0.18390   0.07914   0.89807   -0.39970   0.18390   101.99890
700   0.07914   0.89795   -0.40071   0.18259   0.07914   0.89795   -0.40071   0.18259   101.99890
701   0.07928   0.89795   -0.40028   0.18329   0.07928   0.89795   -0.40028   0.18329   101.92566
702   0.07931   0.89834   -0.40001   0.18192   0.07931   0.89834   -0.40001   0.18192   101.93787
703   0.07920   0.89828   -0.39973   0.18314   0.07920   0.89828   -0.39973   0.18314   102.02026
704   0.07920   0.89807   -0.39995   0.18375   0.07920   0.89807   -0.39995   0.18375   102.01111
705   0.07933   0.89795   -0.39958   0.18476   0.07933   0.89795   -0.39958   0.18476   101.86768
706   0.07930   0.89874   -0.39897   0.18308   0.07930   0.89874   -0.39897   0.18308   101.83411
707   0.07919   0.89831   -0.39955   0.18348   0.07919   0.89831   -0.39955   0.18348   102.01111
708   0.07925   0.89798   -0.40098   0.18192   0.07925   0.89798   -0.40098   0.18192   101.95007
709   0.07924   0.89776   -0.40043   0.18366   0.07924   0.89776   -0.40043   0.18366   101.89209
710   0.07916   0.89825   -0.39909   0.18421   0.07916   0.89825   -0.39909   0.18421   101.90735
711   0.07913   0.89813   -0.39976   0.18406   0.07913   0.89813   -0.39976   0.18406   102.03552
712   0.07919   0.89831   -0.39930   0.18387   0.07919   0.89831   -0.39930   0.18387   101.91650
713   0.07923   0.89816   -0.39995   0.18339   0.07923   0.89816   -0.39995   0.18339   101.90430
714   0.07923   0.89831   -0.40013   0.18216   0.07923   0.89831   -0.40013   0.18216   101.95007
715   0.07919   0.89877   -0.39888   0.18302   0.07919   0.89877   -0.39888   0.18302   102.02332
716   0.07925   0.89862   -0.39894   0.18296   0.07925   0.89862   -0.39894   0.18296   101.91650
717   0.07927   0.89856   -0.39985   0.18171   0.07927   0.89856   -0.39985   0.18171   101.92871
718   0.07922   0.89892   -0.39903   0.18125   0.07922   0.89892   -0.39903   0.18125   101.94092
719   0.07922   0.89822   -0.39985   0.18317   0.07922   0.89822   -0.39985   0.18317   101.96228
720   0.07929   0.89795   -0.40043   0.18320   0.07929   0.89795   -0.40043   0.18320   101.92566
721   0.07926   0.89868   -0.39924   0.18216   0.07926   0.89868   -0.39924   0.18216   101.91650
722   0.07916   0.89901   -0.39802   0.18317   0.07916   0.89901   -0.39802   0.18317   101.97754
723   0.07917   0.89853   -0.39924   0.18323   0.07917   0.89853   -0.39924   0.18323   101.92871
724   0.07917   0.89862   -0.39924   0.18229   0.07917   0.89862   -0.39924   0.18229   101.91956
725   0.07914   0.89822   -0.40010   0.18244   0.07914   0.89822   -0.40010   0.18244   101.99890
726   0.07916   0.89865   -0.39875   0.18351   0.07916   0.89865   -0.39875   0.18351   101.95313
727   0.07921   0.89795   -0.39949   0.18509   0.07921   0.89795   -0.39949   0.18509   101.90430
728   0.07900   0.89807   -0.40049   0.18241   0.07900   0.89807   -0.40049   0.18241   101.95618
729   0.07908   0.89837   -0.39982   0.18256   0.07908   0.89837   -0.39982   0.18256   101.98975
730   0.07929   0.89822   -0.39982   0.18314   0.07929   0.89822   -0.39982   0.18314   101.91650
731   0.07934   0.89822   -0.39979   0.18296   0.07934   0.89822   -0.39979   0.18296   101.87988
732   0.07923   0.89776   -0.40025   0.18473   0.07923   0.89776   -0.40025   0.18473   101.95007
733   0.07913   0.89914   -0.39824   0.18271   0.07913   0.89914   -0.39824   0.18271   101.98975
734   0.07930   0.89807   -0.39976   0.18409   0.07930   0.89807   -0.39976   0.18409   101.90430
735   0.07932   0.89804   -0.40001   0.18403   0.07932   0.89804   -0.40001   0.18403   101.87988
736   0.07922   0.89868   -0.39982   0.18131   0.07922   0.89868   -0.39982   0.18131   101.99890
737   0.07908   0.89862   -0.39933   0.18250   0.07908   0.89862   -0.39933   0.18250   102.02332
738   0.07927   0.89850   -0.39943   0.18308   0.07927   0.89850   -0.39943   0.18308   101.87073
739   0.07924   0.89840   -0.39949   0.18299   0.07924   0.89840   -0.39949   0.18299   101.90430
740   0.07913   0.89825   -0.40022   0.18198   0.07913   0.89825   -0.40022   0.18198   102.05688
741   0.07921   0.89850   -0.40016   0.18094   0.07921   0.89850   -0.40016   0.18094   101.96228
742   0.07926   0.89871   -0.39866   0.18287   0.07926   0.89871   -0.39866   0.18287   101.91650
743   0.07924   0.89819   -0.40022   0.18244   0.07924   0.89819   -0.40022   0.18244   101.95007
744   0.07915   0.89785   -0.40062   0.18278   0.07915   0.89785   -0.40062   0.18278   102.02332
745   0.07926   0.89862   -0.39930   0.18247   0.07926   0.89862   -0.39930   0.18247   101.90430
746   0.07930   0.89837   -0.39946   0.18366   0.07930   0.89837   -0.39946   0.18366   101.90430
747   0.07938   0.89846   -0.39924   0.18360   0.07938   0.89846   -0.39924   0.18360   101.91345
748   0.07928   0.89837   -0.39897   0.18451   0.07928   0.89837   -0.39897   0.18451   102.00806
749   0.07910   0.89776   -0.40068   0.18345   0.07910   0.89776   -0.40068   0.18345   101.95618
750   0.07913   0.89810   -0.40062   0.18247   0.07913   0.89810   -0.40062   0.18247   101.96533
751   0.07916   0.89810   -0.40074   0.18177   0.07916   0.89810   -0.40074   0.18177   102.01111
752   0.07929   0.89834   -0.39985   0.18268   0.07929   0.89834   -0.39985   0.18268   101.93787
753   0.07921   0.89843   -0.39952   0.18274   0.07921   0.89843   -0.39952   0.18274   101.91650
754   0.07913   0.89850   -0.40004   0.18155   0.07913   0.89850   -0.40004   0.18155   101.98975
755   0.07918   0.89819   -0.40098   0.18110   0.07918   0.89819   -0.40098   0.18110   102.01111
756   0.07930   0.89843   -0.39866   0.18461   0.07930   0.89843   -0.39866   0.18461   101.90430
757   0.07926   0.89853   -0.39933   0.18326   0.07926   0.89853   -0.39933   0.18326   101.91650
758   0.07915   0.89807   -0.40126   0.18116   0.07915   0.89807   -0.40126   0.18116   102.03552
759   0.07922   0.89828   -0.40019   0.18244   0.07922   0.89828   -0.40019   0.18244   101.91650
760   0.07932   0.89865   -0.39900   0.18308   0.07932   0.89865   -0.39900   0.18308   101.87988
761   0.07929   0.89856   -0.39998   0.18128   0.07929   0.89856   -0.39998   0.18128   101.95007
762   0.07919   0.89859   -0.39946   0.18183   0.07919   0.89859   -0.39946   0.18183   102.02332
763   0.07935   0.89828   -0.39982   0.18296   0.07935   0.89828   -0.39982   0.18296   101.93787
764   0.07933   0.89856   -0.39946   0.18216   0.07933   0.89856   -0.39946   0.18216   101.87988
765   0.07888   0.89798   -0.40147   0.18082   0.07888   0.89798   -0.40147   0.18082   101.98364
766   0.07904   0.89804   -0.40123   0.18082   0.07904   0.89804   -0.40123   0.18082   102.09656
767   0.07931   0.89840   -0.39967   0.18226   0.07931   0.89840   -0.39967   0.18226   101.89209
768   0.07922   0.89822   -0.39991   0.18290   0.07922   0.89822   -0.39991   0.18290   101.91650
769   0.07903   0.89825   -0.40056   0.18137   0.07903   0.89825   -0.40056   0.18137   102.00195
770   0.07913   0.89862   -0.39955   0.18183   0.07913   0.89862   -0.39955   0.18183   101.98975
771   0.07928   0.89856   -0.39927   0.18287   0.07928   0.89856   -0.39927   0.18287   101.91650
772   0.07924   0.89816   -0.40028   0.18216   0.07924   0.89816   -0.40028   0.18216   101.94092
773   0.07914   0.89782   -0.40184   0.18076   0.07914   0.89782   -0.40184   0.18076   102.09351
774   0.07920   0.89859   -0.39912   0.18284   0.07920   0.89859   -0.39912   0.18284   101.97449
775   0.07929   0.89813   -0.40062   0.18207   0.07929   0.89813   -0.40062   0.18207   101.91650
776   0.07923   0.89792   -0.40104   0.18186   0.07923   0.89792   -0.40104   0.18186   101.97449
777   0.07911   0.89853   -0.39943   0.18223   0.07911   0.89853   -0.39943   0.18223   102.04773
778   0.07909   0.89785   -0.40110   0.18183   0.07909   0.89785   -0.40110   0.18183   101.98975
779   0.07920   0.89837   -0.39982   0.18259   0.07920   0.89837   -0.39982   0.18259   101.88293
780   0.07913   0.89859   -0.39979   0.18125   0.07913   0.89859   -0.39979   0.18125   101.96533
781   0.07913   0.89816   -0.40019   0.18207   0.07913   0.89816   -0.40019   0.18207   102.02332
782   0.07920   0.89831   -0.39991   0.18250   0.07920   0.89831   -0.39991   0.18250   101.88293
783   0.07918   0.89846   -0.40004   0.18143   0.07918   0.89846   -0.40004   0.18143   101.96533
784   0.07917   0.89859   -0.39933   0.18226   0.07917   0.89859   -0.39933   0.18226   101.99890
785   0.07921   0.89856   -0.39933   0.18271   0.07921   0.89856   -0.39933   0.18271   101.95313
786   0.07922   0.89850   -0.39982   0.18192   0.07922   0.89850   -0.39982   0.18192   101.91650
787   0.07922   0.89883   -0.39943   0.18134   0.07922   0.89883   -0.39943   0.18134   101.92871
788   0.07918   0.89785   -0.40178   0.18088   0.07918   0.89785   -0.40178   0.18088   102.05688
789   0.07925   0.89807   -0.39946   0.18455   0.07925   0.89807   -0.39946   0.18455   101.93787
790   0.07926   0.89834   -0.40007   0.18216   0.07926   0.89834   -0.40007   0.18216   101.92871
791   0.07916   0.89758   -0.40196   0.18159   0.07916   0.89758   -0.40196   0.18159   102.03552
792   0.07909   0.89782   -0.40147   0.18119   0.07909   0.89782   -0.40147   0.18119   102.03552
793   0.07919   0.89804   -0.40062   0.18293   0.07919   0.89804   -0.40062   0.18293   101.92871
794   0.07919   0.89911   -0.39927   0.18024   0.07919   0.89911   -0.39927   0.18024   101.90735
795   0.07912   0.89883   -0.39924   0.18180   0.07912   0.89883   -0.39924   0.18180   102.03552
796   0.07917   0.89770   -0.40187   0.18155   0.07917   0.89770   -0.40187   0.18155   101.99890
797   0.07922   0.89865   -0.39918   0.18256   0.07922   0.89865   -0.39918   0.18256   101.85852
798   0.07921   0.89850   -0.40034   0.18107   0.07921   0.89850   -0.40034   0.18107   101.94092
799   0.07916   0.89819   -0.40092   0.18097   0.07916   0.89819   -0.40092   0.18097   102.05688
800   0.07925   0.89850   -0.40031   0.18091   0.07925   0.89850   -0.40031   0.18091   101.92871
801   0.07929   0.89837   -0.39988   0.18213   0.07929   0.89837   -0.39988   0.18213   101.90430
802   0.07924   0.89810   -0.40083   0.18168   0.07924   0.89810   -0.40083   0.18168   101.97449
803   0.07918   0.89828   -0.40046   0.18107   0.07918   0.89828   -0.40046   0.18107   102.06909
804   0.07922   0.89853   -0.40049   0.18015   0.07922   0.89853   -0.40049   0.18015   101.94092
805   0.07921   0.89843   -0.40010   0.18159   0.07921   0.89843   -0.40010   0.18159   101.91650
806   0.07907   0.89789   -0.40208   0.18024   0.07907   0.89789   -0.40208   0.18024   102.05994
807   0.07913   0.89801   -0.40101   0.18155   0.07913   0.89801   -0.40101   0.18155   102.03552
808   0.07917   0.89886   -0.39909   0.18183   0.07917   0.89886   -0.39909   0.18183   101.94092
809   0.07916   0.89819   -0.40037   0.18174   0.07916   0.89819   -0.40037   0.18174   101.95313
810   0.07914   0.89749   -0.40281   0.18033   0.07914   0.89749   -0.40281   0.18033   102.03552
811   0.07919   0.89807   -0.40074   0.18207   0.07919   0.89807   -0.40074   0.18207   101.97449
812   0.07925   0.89850   -0.39976   0.18195   0.07925   0.89850   -0.39976   0.18195   101.92871
813   0.07920   0.89859   -0.40056   0.17994   0.07920   0.89859   -0.40056   0.17994   102.02026
814   0.07922   0.89843   -0.39979   0.18235   0.07922   0.89843   -0.39979   0.18235   101.99890
815   0.07923   0.89819   -0.40056   0.18216   0.07923   0.89819   -0.40056   0.18216   101.95007
816   0.07925   0.89819   -0.40092   0.18085   0.07925   0.89819   -0.40092   0.18085   101.98669
817   0.07919   0.89843   -0.40031   0.18137   0.07919   0.89843   -0.40031   0.18137   102.01111
818   0.07922   0.89764   -0.40187   0.18149   0.07922   0.89764   -0.40187   0.18149   101.99890
819   0.07920   0.89856   -0.39943   0.18216   0.07920   0.89856   -0.39943   0.18216   101.91650
820   0.07911   0.89801   -0.40156   0.18064   0.07911   0.89801   -0.40156   0.18064   102.05994
821   0.07914   0.89850   -0.40089   0.17945   0.07914   0.89850   -0.40089   0.17945   102.02332
822   0.07915   0.89782   -0.40089   0.18281   0.07915   0.89782   -0.40089   0.18281   101.95313
823   0.07922   0.89822   -0.40025   0.18262   0.07922   0.89822   -0.40025   0.18262   101.90430
824   0.07915   0.89795   -0.40196   0.18009   0.07915   0.89795   -0.40196   0.18009   102.02332
825   0.07913   0.89749   -0.40226   0.18116   0.07913   0.89749   -0.40226   0.18116   102.06909
826   0.07923   0.89767   -0.40153   0.18174   0.07923   0.89767   -0.40153   0.18174   101.94092
827   0.07922   0.89807   -0.40095   0.18137   0.07922   0.89807   -0.40095   0.18137   101.96228
828   0.07923   0.89810   -0.40129   0.18088   0.07923   0.89810   -0.40129   0.18088   102.06604
829   0.07927   0.89755   -0.40254   0.18091   0.07927   0.89755   -0.40254   0.18091   102.05383
830   0.07933   0.89755   -0.40242   0.18134   0.07933   0.89755   -0.40242   0.18134   101.92566
831   0.07925   0.89816   -0.40138   0.17988   0.07925   0.89816   -0.40138   0.17988   101.95007
832   0.07915   0.89819   -0.40132   0.18027   0.07915   0.89819   -0.40132   0.18027   102.04468
833   0.07915   0.89758   -0.40205   0.18122   0.07915   0.89758   -0.40205   0.18122   101.99890
834   0.07916   0.89752   -0.40251   0.18091   0.07916   0.89752   -0.40251   0.18091   101.94092
835   0.07916   0.89834   -0.40110   0.17985   0.07916   0.89834   -0.40110   0.17985   101.97754
836   0.07910   0.89831   -0.40059   0.18101   0.07910   0.89831   -0.40059   0.18101   102.04773
837   0.07919   0.89801   -0.40159   0.18024   0.07919   0.89801   -0.40159   0.18024   101.96533
838   0.07917   0.89813   -0.40129   0.18049   0.07917   0.89813   -0.40129   0.18049   101.97754
839   0.07919   0.89740   -0.40321   0.18000   0.07919   0.89740   -0.40321   0.18000   102.01111
840   0.07916   0.89685   -0.40309   0.18259   0.07916   0.89685   -0.40309   0.18259   102.01111
841   0.07922   0.89709   -0.40333   0.18143   0.07922   0.89709   -0.40333   0.18143   101.98669
842   0.07923   0.89819   -0.40135   0.18043   0.07923   0.89819   -0.40135   0.18043   101.94092
843   0.07920   0.89737   -0.40281   0.18116   0.07920   0.89737   -0.40281   0.18116   102.06909
844   0.07923   0.89776   -0.40156   0.18177   0.07923   0.89776   -0.40156   0.18177   101.97449
845   0.07923   0.89770   -0.40165   0.18140   0.07923   0.89770   -0.40165   0.18140   101.97449
846   0.07906   0.89813   -0.40101   0.18085   0.07906   0.89813   -0.40101   0.18085   102.02637
847   0.07887   0.89773   -0.40242   0.18015   0.07887   0.89773   -0.40242   0.18015   101.99585
848   0.07918   0.89782   -0.40129   0.18204   0.07918   0.89782   -0.40129   0.18204   101.92871
849   0.07926   0.89731   -0.40233   0.18186   0.07926   0.89731   -0.40233   0.18186   101.99585
850   0.07913   0.89746   -0.40226   0.18210   0.07913   0.89746   -0.40226   0.18210   102.02332
851   0.07910   0.89743   -0.40190   0.18210   0.07910   0.89743   -0.40190   0.18210   102.00195
852   0.07918   0.89767   -0.40217   0.18067   0.07918   0.89767   -0.40217   0.18067   101.94092
853   0.07924   0.89749   -0.40236   0.18137   0.07924   0.89749   -0.40236   0.18137   101.99585
854   0.07914   0.89740   -0.40300   0.18043   0.07914   0.89740   -0.40300   0.18043   102.08130
855   0.07917   0.89685   -0.40367   0.18143   0.07917   0.89685   -0.40367   0.18143   101.99890
856   0.07921   0.89676   -0.40339   0.18244   0.07921   0.89676   -0.40339   0.18244   101.95313
857   0.07922   0.89712   -0.40269   0.18207   0.07922   0.89712   -0.40269   0.18207   102.04468
858   0.07916   0.89773   -0.40205   0.18116   0.07916   0.89773   -0.40205   0.18116   102.11487
859   0.07923   0.89758   -0.40202   0.18140   0.07923   0.89758   -0.40202   0.18140   101.91650
860   0.07918   0.89752   -0.40251   0.18091   0.07918   0.89752   -0.40251   0.18091   101.91650
861   0.07908   0.89749   -0.40306   0.17972   0.07908   0.89749   -0.40306   0.17972   102.04773
862   0.07917   0.89785   -0.40205   0.18061   0.07917   0.89785   -0.40205   0.18061   101.99890
863   0.07919   0.89657   -0.40355   0.18317   0.07919   0.89657   -0.40355   0.18317   101.97449
864   0.07929   0.89697   -0.40287   0.18223   0.07929   0.89697   -0.40287   0.18223   101.96228
865   0.07913   0.89697   -0.40419   0.18021   0.07913   0.89697   -0.40419   0.18021   102.08130
866   0.07919   0.89679   -0.40373   0.18189   0.07919   0.89679   -0.40373   0.18189   101.96533
867   0.07930   0.89645   -0.40422   0.18180   0.07930   0.89645   -0.40422   0.18180   102.02026
868   0.07923   0.89712   -0.40324   0.18097   0.07923   0.89712   -0.40324   0.18097   102.05383
869   0.07923   0.89679   -0.40388   0.18143   0.07923   0.89679   -0.40388   0.18143   102.04468
870   0.07929   0.89688   -0.40269   0.18320   0.07929   0.89688   -0.40269   0.18320   101.99585
871   0.07929   0.89700   -0.40297   0.18244   0.07929   0.89700   -0.40297   0.18244   101.98364
872   0.07922   0.89697   -0.40342   0.18131   0.07922   0.89697   -0.40342   0.18131   102.03247
873   0.07922   0.89676   -0.40324   0.18259   0.07922   0.89676   -0.40324   0.18259   102.05688
874   0.07917   0.89706   -0.40315   0.18131   0.07917   0.89706   -0.40315   0.18131   101.95313
875   0.07910   0.89663   -0.40428   0.18140   0.07910   0.89663   -0.40428   0.18140   102.04773
876   0.07915   0.89633   -0.40431   0.18281   0.07915   0.89633   -0.40431   0.18281   102.03552
877   0.07916   0.89660   -0.40385   0.18229   0.07916   0.89660   -0.40385   0.18229   102.03552
878   0.07921   0.89697   -0.40349   0.18152   0.07921   0.89697   -0.40349   0.18152   101.98669
879   0.07917   0.89648   -0.40449   0.18134   0.07917   0.89648   -0.40449   0.18134   102.06909
880   0.07917   0.89654   -0.40410   0.18159   0.07917   0.89654   -0.40410   0.18159   102.04468
881   0.07928   0.89685   -0.40339   0.18174   0.07928   0.89685   -0.40339   0.18174   101.97449
882   0.07924   0.89697   -0.40397   0.18046   0.07924   0.89697   -0.40397   0.18046   101.98669
883   0.07917   0.89663   -0.40428   0.18125   0.07917   0.89663   -0.40428   0.18125   102.09045
884   0.07922   0.89615   -0.40495   0.18226   0.07922   0.89615   -0.40495   0.18226   102.04468
885   0.07930   0.89660   -0.40382   0.18183   0.07930   0.89660   -0.40382   0.18183   101.93787
886   0.07923   0.89633   -0.40483   0.18155   0.07923   0.89633   -0.40483   0.18155   101.99890
887   0.07914   0.89648   -0.40519   0.17991   0.07914   0.89648   -0.40519   0.17991   102.10266
888   0.07913   0.89682   -0.40339   0.18198   0.07913   0.89682   -0.40339   0.18198   102.01111
889   0.07921   0.89657   -0.40446   0.18146   0.07921   0.89657   -0.40446   0.18146   101.94092
890   0.07919   0.89715   -0.40367   0.18039   0.07919   0.89715   -0.40367   0.18039   101.99890
891   0.07908   0.89654   -0.40446   0.18134   0.07908   0.89654   -0.40446   0.18134   102.11792
892   0.07921   0.89642   -0.40367   0.18314   0.07921   0.89642   -0.40367   0.18314   101.98669
893   0.07925   0.89691   -0.40297   0.18220   0.07925   0.89691   -0.40297   0.18220   101.97449
894   0.07922   0.89697   -0.40379   0.18079   0.07922   0.89697   -0.40379   0.18079   102.04468
895   0.07915   0.89642   -0.40382   0.18357   0.07915   0.89642   -0.40382   0.18357   102.05688
896   0.07928   0.89642   -0.40394   0.18290   0.07928   0.89642   -0.40394   0.18290   101.98364
897   0.07923   0.89718   -0.40269   0.18210   0.07923   0.89718   -0.40269   0.18210   101.96228
898   0.07921   0.89688   -0.40312   0.18241   0.07921   0.89688   -0.40312   0.18241   102.04468
899   0.07925   0.89703   -0.40294   0.18247   0.07925   0.89703   -0.40294   0.18247   102.00806
900   0.07923   0.89673   -0.40370   0.18186   0.07923   0.89673   -0.40370   0.18186   101.98669
901   0.07918   0.89648   -0.40437   0.18177   0.07918   0.89648   -0.40437   0.18177   102.01111
902   0.07912   0.89663   -0.40370   0.18235   0.07912   0.89663   -0.40370   0.18235   102.03552
903   0.07915   0.89755   -0.40144   0.18345   0.07915   0.89755   -0.40144   0.18345   101.97754
904   0.07918   0.89679   -0.40345   0.18216   0.07918   0.89679   -0.40345   0.18216   102.04468
905   0.07915   0.89691   -0.40318   0.18220   0.07915   0.89691   -0.40318   0.18220   102.04468
906   0.07919   0.89688   -0.40315   0.18259   0.07919   0.89688   -0.40315   0.18259   102.03247
907   0.07924   0.89645   -0.40364   0.18342   0.07924   0.89645   -0.40364   0.18342   101.95007
908   0.07922   0.89703   -0.40260   0.18278   0.07922   0.89703   -0.40260   0.18278   102.02026
909   0.07918   0.89706   -0.40275   0.18210   0.07918   0.89706   -0.40275   0.18210   102.09045
910   0.07926   0.89660   -0.40287   0.18415   0.07926   0.89660   -0.40287   0.18415   101.97449
911   0.07927   0.89676   -0.40342   0.18256   0.07927   0.89676   -0.40342   0.18256   101.96228
912   0.07921   0.89663   -0.40373   0.18232   0.07921   0.89663   -0.40373   0.18232   102.05688
913   0.07917   0.89654   -0.40349   0.18339   0.07917   0.89654   -0.40349   0.18339   102.06909
914   0.07927   0.89648   -0.40339   0.18375   0.07927   0.89648   -0.40339   0.18375   101.95007
915   0.07923   0.89660   -0.40367   0.18299   0.07923   0.89660   -0.40367   0.18299   101.95007
916   0.07907   0.89691   -0.40330   0.18183   0.07907   0.89691   -0.40330   0.18183   102.07214
917   0.07920   0.89727   -0.40233   0.18223   0.07920   0.89727   -0.40233   0.18223   101.95313
918   0.07921   0.89709   -0.40233   0.18320   0.07921   0.89709   -0.40233   0.18320   101.92871
919   0.07920   0.89676   -0.40352   0.18241   0.07920   0.89676   -0.40352   0.18241   101.99890
920   0.07913   0.89697   -0.40294   0.18265   0.07913   0.89697   -0.40294   0.18265   102.05688
921   0.07921   0.89654   -0.40358   0.18271   0.07921   0.89654   -0.40358   0.18271   101.97449
922   0.07930   0.89645   -0.40355   0.18372   0.07930   0.89645   -0.40355   0.18372   101.93787
923   0.07927   0.89660   -0.40373   0.18250   0.07927   0.89660   -0.40373   0.18250   102.02026
924   0.07920   0.89734   -0.40208   0.18259   0.07920   0.89734   -0.40208   0.18259   102.06909
925   0.07924   0.89673   -0.40257   0.18415   0.07924   0.89673   -0.40257   0.18415   101.99585
926   0.07927   0.89700   -0.40339   0.18122   0.07927   0.89700   -0.40339   0.18122   101.99585
927   0.07913   0.89703   -0.40342   0.18165   0.07913   0.89703   -0.40342   0.18165   102.04773
928   0.07901   0.89734   -0.40245   0.18116   0.07901   0.89734   -0.40245   0.18116   102.02637
929   0.07912   0.89673   -0.40422   0.18107   0.07912   0.89673   -0.40422   0.18107   101.98975
930   0.07916   0.89724   -0.40242   0.18229   0.07916   0.89724   -0.40242   0.18229   101.95313
931   0.07922   0.89685   -0.40358   0.18125   0.07922   0.89685   -0.40358   0.18125   102.02026
932   0.07918   0.89697   -0.40281   0.18302   0.07918   0.89697   -0.40281   0.18302   101.94092
933   0.07921   0.89715   -0.40236   0.18296   0.07921   0.89715   -0.40236   0.18296   102.01111
934   0.07919   0.89712   -0.40257   0.18244   0.07919   0.89712   -0.40257   0.18244   102.03247
935   0.07923   0.89746   -0.40178   0.18284   0.07923   0.89746   -0.40178   0.18284   102.00806
936   0.07929   0.89688   -0.40278   0.18284   0.07929   0.89688   -0.40278   0.18284   101.95007
937   0.07928   0.89642   -0.40391   0.18293   0.07928   0.89642   -0.40391   0.18293   102.00806
938   0.07926   0.89718   -0.40217   0.18345   0.07926   0.89718   -0.40217   0.18345   102.03247
939   0.07927   0.89721   -0.40287   0.18198   0.07927   0.89721   -0.40287   0.18198   102.02026
940   0.07932   0.89691   -0.40291   0.18302   0.07932   0.89691   -0.40291   0.18302   101.93787
941   0.07924   0.89669   -0.40410   0.18104   0.07924   0.89669   -0.40410   0.18104   101.99585
942   0.07916   0.89676   -0.40367   0.18195   0.07916   0.89676   -0.40367   0.18195   102.06909
943   0.07919   0.89755   -0.40129   0.18287   0.07919   0.89755   -0.40129   0.18287   101.97449
944   0.07919   0.89706   -0.40239   0.18320   0.07919   0.89706   -0.40239   0.18320   101.94092
945   0.07916   0.89718   -0.40266   0.18232   0.07916   0.89718   -0.40266   0.18232   102.04468
946   0.07912   0.89737   -0.40254   0.18125   0.07912   0.89737   -0.40254   0.18125   102.08130
947   0.07937   0.89706   -0.40233   0.18342   0.07937   0.89706   -0.40233   0.18342   101.92566
948   0.07932   0.89694   -0.40318   0.18250   0.07932   0.89694   -0.40318   0.18250   101.95007
949   0.07906   0.89727   -0.40275   0.18198   0.07906   0.89727   -0.40275   0.18198   102.02637
950   0.07913   0.89706   -0.40266   0.18256   0.07913   0.89706   -0.40266   0.18256   102.08130
951   0.07937   0.89721   -0.40199   0.18372   0.07937   0.89721   -0.40199   0.18372   101.90125
952   0.07934   0.89740   -0.40214   0.18238   0.07934   0.89740   -0.40214   0.18238   101.95923
953   0.07921   0.89688   -0.40287   0.18317   0.07921   0.89688   -0.40287   0.18317   102.07825
954   0.07920   0.89740   -0.40245   0.18189   0.07920   0.89740   -0.40245   0.18189   102.01111
955   0.07925   0.89700   -0.40321   0.18183   0.07925   0.89700   -0.40321   0.18183   101.99585
956   0.07924   0.89731   -0.40257   0.18177   0.07924   0.89731   -0.40257   0.18177   101.97449
957   0.07909   0.89697   -0.40297   0.18238   0.07909   0.89697   -0.40297   0.18238   102.08130
958   0.07915   0.89666   -0.40309   0.18378   0.07915   0.89666   -0.40309   0.18378   101.99890
959   0.07920   0.89737   -0.40223   0.18253   0.07920   0.89737   -0.40223   0.18253   101.94092
960   0.07915   0.89682   -0.40315   0.18274   0.07915   0.89682   -0.40315   0.18274   102.01111
961   0.07914   0.89752   -0.40135   0.18287   0.07914   0.89752   -0.40135   0.18287   102.02332
962   0.07918   0.89724   -0.40138   0.18436   0.07918   0.89724   -0.40138   0.18436   102.02332
963   0.07940   0.89679   -0.40324   0.18235   0.07940   0.89679   -0.40324   0.18235   101.98059
964   0.07923   0.89691   -0.40303   0.18250   0.07923   0.89691   -0.40303   0.18250   102.05383
965   0.07900   0.89712   -0.40291   0.18204   0.07900   0.89712   -0.40291   0.18204   101.98059
966   0.07918   0.89706   -0.40260   0.18278   0.07918   0.89706   -0.40260   0.18278   101.94092
967   0.07934   0.89743   -0.40211   0.18180   0.07934   0.89743   -0.40211   0.18180   102.00500
968   0.07921   0.89737   -0.40214   0.18183   0.07921   0.89737   -0.40214   0.18183   102.03247
969   0.07914   0.89712   -0.40318   0.18101   0.07914   0.89712   -0.40318   0.18101   101.94092
970   0.07916   0.89679   -0.40336   0.18262   0.07916   0.89679   -0.40336   0.18262   101.98669
971   0.07906   0.89703   -0.40275   0.18274   0.07906   0.89703   -0.40275   0.18274   102.07214
972   0.07913   0.89758   -0.40114   0.18329   0.07913   0.89758   -0.40114   0.18329   101.98975
973   0.07913   0.89743   -0.40117   0.18439   0.07913   0.89743   -0.40117   0.18439   101.91956
974   0.07916   0.89737   -0.40181   0.18308   0.07916   0.89737   -0.40181   0.18308   102.01111
975   0.07913   0.89764   -0.40193   0.18119   0.07913   0.89764   -0.40193   0.18119   102.04773
976   0.07919   0.89743   -0.40181   0.18274   0.07919   0.89743   -0.40181   0.18274   101.96533
977   0.07927   0.89776   -0.40074   0.18320   0.07927   0.89776   -0.40074   0.18320   101.87988
978   0.07922   0.89654   -0.40321   0.18397   0.07922   0.89654   -0.40321   0.18397   102.06604
979   0.07916   0.89743   -0.40220   0.18189   0.07916   0.89743   -0.40220   0.18189   102.09045
980   0.07925   0.89715   -0.40199   0.18375   0.07925   0.89715   -0.40199   0.18375   101.95007
981   0.07930   0.89724   -0.40187   0.18360   0.07930   0.89724   -0.40187   0.18360   101.91650
982   0.07922   0.89740   -0.40223   0.18216   0.07922   0.89740   -0.40223   0.18216   102.03247
983   0.07916   0.89709   -0.40266   0.18250   0.07916   0.89709   -0.40266   0.18250   102.02332
984   0.07922   0.89721   -0.40181   0.18372   0.07922   0.89721   -0.40181   0.18372   101.96228
985   0.07917   0.89709   -0.40217   0.18357   0.07917   0.89709   -0.40217   0.18357   101.96533
986   0.07916   0.89731   -0.40202   0.18326   0.07916   0.89731   -0.40202   0.18326   102.04468
987   0.07917   0.89688   -0.40272   0.18317   0.07917   0.89688   -0.40272   0.18317   101.98669
988   0.07921   0.89773   -0.40040   0.18381   0.07921   0.89773   -0.40040   0.18381   101.94092
989   0.07920   0.89743   -0.40272   0.18101   0.07920   0.89743   -0.40272   0.18101   101.94092
990   0.07915   0.89770   -0.40092   0.18299   0.07915   0.89770   -0.40092   0.18299   102.03552
991   0.07920   0.89758   -0.40086   0.18433   0.07920   0.89758   -0.40086   0.18433   101.96228
992   0.07928   0.89740   -0.40172   0.18314   0.07928   0.89740   -0.40172   0.18314   101.93787
993   0.07922   0.89697   -0.40211   0.18439   0.07922   0.89697   -0.40211   0.18439   102.00806
994   0.07920   0.89734   -0.40156   0.18357   0.07920   0.89734   -0.40156   0.18357   102.04468
995   0.07928   0.89795   -0.40040   0.18354   0.07928   0.89795   -0.40040   0.18354   101.96228
996   0.07923   0.89764   -0.40132   0.18256   0.07923   0.89764   -0.40132   0.18256   101.98669
997   0.07914   0.89779   -0.40046   0.18403   0.07914   0.89779   -0.40046   0.18403   102.02332
998   0.07914   0.89737   -0.40202   0.18265   0.07914   0.89737   -0.40202   0.18265   102.02332
999   0.07915   0.89764   -0.40071   0.18418   0.07915   0.89764   -0.40071   0.18418   101.95313
1000   0.07917   0.89779   -0.40120   0.18235   0.07917   0.89779   -0.40120   0.18235   101.99890
1001   0.07915   0.89785   -0.40083   0.18250   0.07915   0.89785   -0.40083   0.18250   102.01111
1002   0.07923   0.89798   -0.39976   0.18424   0.07923   0.89798   -0.39976   0.18424   101.91650
1003   0.07921   0.89776   -0.40074   0.18305   0.07921   0.89776   -0.40074   0.18305   101.96228
1004   0.07918   0.89703   -0.40193   0.18455   0.07918   0.89703   -0.40193   0.18455   101.99890
1005   0.07920   0.89743   -0.40150   0.18369   0.07920   0.89743   -0.40150   0.18369   102.01111
1006   0.07926   0.89795   -0.40013   0.18433   0.07926   0.89795   -0.40013   0.18433   101.87988
1007   0.07927   0.89761   -0.40107   0.18390   0.07927   0.89761   -0.40107   0.18390   101.97449
1008   0.07921   0.89740   -0.40153   0.18360   0.07921   0.89740   -0.40153   0.18360   102.01111
1009   0.07922   0.89752   -0.40123   0.18345   0.07922   0.89752   -0.40123   0.18345   101.99890
1010   0.07925   0.89764   -0.40025   0.18479   0.07925   0.89764   -0.40025   0.18479   101.91650
1011   0.07920   0.89795   -0.40052   0.18296   0.07920   0.89795   -0.40052   0.18296   101.95313
1012   0.07908   0.89785   -0.40049   0.18363   0.07908   0.89785   -0.40049   0.18363   102.02332
1013   0.07913   0.89755   -0.40098   0.18427   0.07913   0.89755   -0.40098   0.18427   101.96533
1014   0.07921   0.89843   -0.39918   0.18397   0.07921   0.89843   -0.39918   0.18397   101.87073
1015   0.07913   0.89804   -0.40025   0.18394   0.07913   0.89804   -0.40025   0.18394   101.99890
1016   0.07916   0.89810   -0.40001   0.18369   0.07916   0.89810   -0.40001   0.18369   101.98669
1017   0.07922   0.89792   -0.40034   0.18397   0.07922   0.89792   -0.40034   0.18397   101.92871
1018   0.07924   0.89804   -0.40007   0.18342   0.07924   0.89804   -0.40007   0.18342   101.91650
1019   0.07919   0.89789   -0.39970   0.18476   0.07919   0.89789   -0.39970   0.18476   101.97449
1020   0.07922   0.89743   -0.40132   0.18412   0.07922   0.89743   -0.40132   0.18412   101.99890
1021   0.07926   0.89782   -0.39970   0.18482   0.07926   0.89782   -0.39970   0.18482   101.93787
1022   0.07923   0.89798   -0.40043   0.18342   0.07923   0.89798   -0.40043   0.18342   101.94092
1023   0.07922   0.89837   -0.39933   0.18311   0.07922   0.89837   -0.39933   0.18311   101.96228
1024   0.07924   0.89785   -0.40001   0.18488   0.07924   0.89785   -0.40001   0.18488   101.92871
1025   0.07919   0.89804   -0.40046   0.18329   0.07919   0.89804   -0.40046   0.18329   101.91650
1026   0.07907   0.89813   -0.40083   0.18149   0.07907   0.89813   -0.40083   0.18149   101.98975
1027   0.07918   0.89831   -0.40019   0.18201   0.07918   0.89831   -0.40019   0.18201   101.96533
1028   0.07929   0.89801   -0.40019   0.18412   0.07929   0.89801   -0.40019   0.18412   101.89209
1029   0.07926   0.89792   -0.40028   0.18345   0.07926   0.89792   -0.40028   0.18345   101.99585
1030   0.07918   0.89843   -0.39933   0.18332   0.07918   0.89843   -0.39933   0.18332   101.96533
1031   0.07918   0.89813   -0.39982   0.18372   0.07918   0.89813   -0.39982   0.18372   101.94092
1032   0.07927   0.89801   -0.40004   0.18397   0.07927   0.89801   -0.40004   0.18397   101.91650
1033   0.07917   0.89789   -0.40068   0.18317   0.07917   0.89789   -0.40068   0.18317   102.04468
1034   0.07914   0.89853   -0.39906   0.18311   0.07914   0.89853   -0.39906   0.18311   101.98975
1035   0.07924   0.89816   -0.39924   0.18485   0.07924   0.89816   -0.39924   0.18485   101.89209
1036   0.07922   0.89816   -0.39958   0.18418   0.07922   0.89816   -0.39958   0.18418   101.91650
1037   0.07912   0.89795   -0.40034   0.18342   0.07912   0.89795   -0.40034   0.18342   102.03552
1038   0.07914   0.89816   -0.39955   0.18427   0.07914   0.89816   -0.39955   0.18427   102.01111
1039   0.07920   0.89843   -0.39869   0.18476   0.07920   0.89843   -0.39869   0.18476   101.83716
1040   0.07913   0.89868   -0.39851   0.18394   0.07913   0.89868   -0.39851   0.18394   101.86157
1041   0.07910   0.89883   -0.39882   0.18281   0.07910   0.89883   -0.39882   0.18281   101.94397
1042   0.07913   0.89840   -0.39924   0.18329   0.07913   0.89840   -0.39924   0.18329   101.96533
1043   0.07922   0.89816   -0.39930   0.18430   0.07922   0.89816   -0.39930   0.18430   101.87073
1044   0.07921   0.89795   -0.40089   0.18244   0.07921   0.89795   -0.40089   0.18244   101.94092
1045   0.07912   0.89764   -0.40114   0.18360   0.07912   0.89764   -0.40114   0.18360   102.06909
1046   0.07912   0.89819   -0.39891   0.18509   0.07912   0.89819   -0.39891   0.18509   101.94397
1047   0.07895   0.89886   -0.39836   0.18329   0.07895   0.89886   -0.39836   0.18329   101.88904
1048   0.07917   0.89840   -0.39958   0.18274   0.07917   0.89840   -0.39958   0.18274   101.95313
1049   0.07924   0.89871   -0.39891   0.18271   0.07924   0.89871   -0.39891   0.18271   102.02026
1050   0.07927   0.89834   -0.39924   0.18363   0.07927   0.89834   -0.39924   0.18363   101.87988
1051   0.07910   0.89895   -0.39824   0.18250   0.07910   0.89895   -0.39824   0.18250   101.94397
1052   0.07910   0.89843   -0.39964   0.18226   0.07910   0.89843   -0.39964   0.18226   101.97754
1053   0.07913   0.89816   -0.39967   0.18351   0.07913   0.89816   -0.39967   0.18351   101.99890
1054   0.07915   0.89840   -0.39927   0.18372   0.07915   0.89840   -0.39927   0.18372   101.89514
1055   0.07913   0.89877   -0.39888   0.18268   0.07913   0.89877   -0.39888   0.18268   101.94397
1056   0.07911   0.89874   -0.39879   0.18262   0.07911   0.89874   -0.39879   0.18262   101.94397
1057   0.07917   0.89874   -0.39906   0.18265   0.07917   0.89874   -0.39906   0.18265   101.90735
1058   0.07921   0.89859   -0.39915   0.18302   0.07921   0.89859   -0.39915   0.18302   101.92871
1059   0.07918   0.89846   -0.39909   0.18339   0.07918   0.89846   -0.39909   0.18339   101.96533
1060   0.07918   0.89822   -0.39967   0.18378   0.07918   0.89822   -0.39967   0.18378   101.95313
1061   0.07925   0.89795   -0.40001   0.18394   0.07925   0.89795   -0.40001   0.18394   101.90430
1062   0.07925   0.89889   -0.39842   0.18348   0.07925   0.89889   -0.39842   0.18348   101.91650
1063   0.07922   0.89831   -0.40004   0.18241   0.07922   0.89831   -0.40004   0.18241   102.00806
1064   0.07933   0.89901   -0.39763   0.18390   0.07933   0.89901   -0.39763   0.18390   101.93787
1065   0.07926   0.89865   -0.39854   0.18366   0.07926   0.89865   -0.39854   0.18366   101.87988
1066   0.07918   0.89853   -0.39940   0.18271   0.07918   0.89853   -0.39940   0.18271   101.97449
1067   0.07913   0.89859   -0.39897   0.18332   0.07913   0.89859   -0.39897   0.18332   101.99890
1068   0.07922   0.89859   -0.39808   0.18497   0.07922   0.89859   -0.39808   0.18497   101.90430
1069   0.07927   0.89837   -0.39988   0.18247   0.07927   0.89837   -0.39988   0.18247   101.89209
1070   0.07918   0.89892   -0.39772   0.18424   0.07918   0.89892   -0.39772   0.18424   101.97449
1071   0.07919   0.89871   -0.39900   0.18244   0.07919   0.89871   -0.39900   0.18244   101.99890
1072   0.07926   0.89917   -0.39790   0.18265   0.07926   0.89917   -0.39790   0.18265   101.85852
1073   0.07929   0.89837   -0.39970   0.18265   0.07929   0.89837   -0.39970   0.18265   101.89209
1074   0.07918   0.89822   -0.40019   0.18238   0.07918   0.89822   -0.40019   0.18238   102.02332
1075   0.07922   0.89889   -0.39790   0.18436   0.07922   0.89889   -0.39790   0.18436   101.95313
1076   0.07924   0.89813   -0.39976   0.18348   0.07924   0.89813   -0.39976   0.18348   101.92871
1077   0.07926   0.89926   -0.39756   0.18274   0.07926   0.89926   -0.39756   0.18274   101.89209
1078   0.07922   0.89804   -0.40056   0.18213   0.07922   0.89804   -0.40056   0.18213   101.99890
1079   0.07919   0.89914   -0.39769   0.18320   0.07919   0.89914   -0.39769   0.18320   101.96533
1080   0.07919   0.89831   -0.39982   0.18265   0.07919   0.89831   -0.39982   0.18265   101.95313
1081   0.07912   0.89892   -0.39879   0.18195   0.07912   0.89892   -0.39879   0.18195   101.94397
1082   0.07914   0.89859   -0.39897   0.18372   0.07914   0.89859   -0.39897   0.18372   101.97754
1083   0.07919   0.89819   -0.40016   0.18293   0.07919   0.89819   -0.40016   0.18293   101.90735
1084   0.07922   0.89843   -0.39985   0.18244   0.07922   0.89843   -0.39985   0.18244   101.92871
1085   0.07920   0.89874   -0.39918   0.18174   0.07920   0.89874   -0.39918   0.18174   101.97449
1086   0.07922   0.89840   -0.39998   0.18207   0.07922   0.89840   -0.39998   0.18207   101.97449
1087   0.07926   0.89871   -0.39848   0.18348   0.07926   0.89871   -0.39848   0.18348   101.89209
1088   0.07923   0.89914   -0.39824   0.18210   0.07923   0.89914   -0.39824   0.18210   101.92871
1089   0.07921   0.89822   -0.39979   0.18336   0.07921   0.89822   -0.39979   0.18336   102.01111
1090   0.07926   0.89843   -0.39921   0.18351   0.07926   0.89843   -0.39921   0.18351   101.93787
1091   0.07927   0.89822   -0.40001   0.18311   0.07927   0.89822   -0.40001   0.18311   101.91650
1092   0.07924   0.89822   -0.40007   0.18296   0.07924   0.89822   -0.40007   0.18296   102.00806
1093   0.07921   0.89862   -0.39906   0.18296   0.07921   0.89862   -0.39906   0.18296   101.97449
1094   0.07923   0.89843   -0.39903   0.18378   0.07923   0.89843   -0.39903   0.18378   101.87073
1095   0.07915   0.89850   -0.39991   0.18143   0.07915   0.89850   -0.39991   0.18143   101.91956
1096   0.07912   0.89859   -0.39955   0.18201   0.07912   0.89859   -0.39955   0.18201   102.02332
1097   0.07915   0.89892   -0.39836   0.18247   0.07915   0.89892   -0.39836   0.18247   101.95313
1098   0.07922   0.89843   -0.39900   0.18403   0.07922   0.89843   -0.39900   0.18403   101.87073
1099   0.07919   0.89877   -0.39814   0.18387   0.07919   0.89877   -0.39814   0.18387   101.90735
1100   0.07916   0.89874   -0.39952   0.18104   0.07916   0.89874   -0.39952   0.18104   102.05688
1101   0.07923   0.89874   -0.39882   0.18329   0.07923   0.89874   -0.39882   0.18329   101.90430
1102   0.07928   0.89825   -0.39985   0.18284   0.07928   0.89825   -0.39985   0.18284   101.87988
1103   0.07923   0.89828   -0.40016   0.18183   0.07923   0.89828   -0.40016   0.18183   101.97449
1104   0.07914   0.89837   -0.39970   0.18287   0.07914   0.89837   -0.39970   0.18287   102.02332
1105   0.07930   0.89792   -0.40031   0.18351   0.07930   0.89792   -0.40031   0.18351   101.91650
1106   0.07926   0.89892   -0.39863   0.18265   0.07926   0.89892   -0.39863   0.18265   101.85852
1107   0.07918   0.89901   -0.39915   0.18064   0.07918   0.89901   -0.39915   0.18064   101.94092
1108   0.07913   0.89904   -0.39842   0.18229   0.07913   0.89904   -0.39842   0.18229   101.95313
1109   0.07916   0.89853   -0.39949   0.18262   0.07916   0.89853   -0.39949   0.18262   101.90735
1110   0.07920   0.89880   -0.39900   0.18186   0.07920   0.89880   -0.39900   0.18186   101.94092
1111   0.07911   0.89819   -0.40031   0.18216   0.07911   0.89819   -0.40031   0.18216   102.03552
1112   0.07922   0.89883   -0.39894   0.18223   0.07922   0.89883   -0.39894   0.18223   101.91650
1113   0.07925   0.89889   -0.39885   0.18174   0.07925   0.89889   -0.39885   0.18174   101.91650
1114   0.07923   0.89792   -0.40120   0.18213   0.07923   0.89792   -0.40120   0.18213   101.97449
1115   0.07922   0.89865   -0.39921   0.18253   0.07922   0.89865   -0.39921   0.18253   101.96228
1116   0.07924   0.89831   -0.39946   0.18336   0.07924   0.89831   -0.39946   0.18336   101.90430
1117   0.07928   0.89770   -0.40144   0.18183   0.07928   0.89770   -0.40144   0.18183   101.92566
1118   0.07924   0.89901   -0.39921   0.18091   0.07924   0.89901   -0.39921   0.18091   101.95007
1119   0.07925   0.89901   -0.39811   0.18311   0.07925   0.89901   -0.39811   0.18311   101.92871
1120   0.07926   0.89862   -0.39915   0.18253   0.07926   0.89862   -0.39915   0.18253   101.89209
1121   0.07919   0.89962   -0.39796   0.18055   0.07919   0.89962   -0.39796   0.18055   101.94092
1122   0.07909   0.89911   -0.39872   0.18146   0.07909   0.89911   -0.39872   0.18146   101.96533
1123   0.07918   0.89840   -0.39946   0.18302   0.07918   0.89840   -0.39946   0.18302   101.89514
1124   0.07921   0.89822   -0.40052   0.18162   0.07921   0.89822   -0.40052   0.18162   101.89514
1125   0.07916   0.89834   -0.40016   0.18149   0.07916   0.89834   -0.40016   0.18149   101.97754
1126   0.07917   0.89853   -0.40028   0.18079   0.07917   0.89853   -0.40028   0.18079   102.01111
1127   0.07919   0.89895   -0.39891   0.18125   0.07919   0.89895   -0.39891   0.18125   101.89514
1128   0.07906   0.89914   -0.39869   0.18107   0.07906   0.89914   -0.39869   0.18107   101.91040
1129   0.07903   0.89880   -0.39906   0.18168   0.07903   0.89880   -0.39906   0.18168   102.04773
1130   0.07923   0.89825   -0.39955   0.18339   0.07923   0.89825   -0.39955   0.18339   102.00806
1131   0.07934   0.89862   -0.39915   0.18302   0.07934   0.89862   -0.39915   0.18302   101.90125
1132   0.07928   0.89886   -0.39903   0.18162   0.07928   0.89886   -0.39903   0.18162   101.91650
1133   0.07914   0.89834   -0.40004   0.18253   0.07914   0.89834   -0.40004   0.18253   102.06909
1134   0.07923   0.89850   -0.40010   0.18143   0.07923   0.89850   -0.40010   0.18143   101.95007
1135   0.07931   0.89846   -0.39973   0.18265   0.07931   0.89846   -0.39973   0.18265   101.89209
1136   0.07915   0.89880   -0.39967   0.18101   0.07915   0.89880   -0.39967   0.18101   101.97754
1137   0.07911   0.89880   -0.39897   0.18207   0.07911   0.89880   -0.39897   0.18207   102.04773
1138   0.07919   0.89874   -0.39869   0.18290   0.07919   0.89874   -0.39869   0.18290   101.92871
1139   0.07928   0.89886   -0.39897   0.18189   0.07928   0.89886   -0.39897   0.18189   101.92566
1140   0.07922   0.89856   -0.39970   0.18168   0.07922   0.89856   -0.39970   0.18168   101.94092
1141   0.07918   0.89920   -0.39866   0.18146   0.07918   0.89920   -0.39866   0.18146   101.97449
1142   0.07927   0.89819   -0.39985   0.18305   0.07927   0.89819   -0.39985   0.18305   101.95007
1143   0.07927   0.89828   -0.40016   0.18207   0.07927   0.89828   -0.40016   0.18207   101.91650
1144   0.07924   0.89843   -0.40013   0.18128   0.07924   0.89843   -0.40013   0.18128   102.00806
1145   0.07926   0.89904   -0.39860   0.18210   0.07926   0.89904   -0.39860   0.18210   101.95007
1146   0.07930   0.89892   -0.39857   0.18232   0.07930   0.89892   -0.39857   0.18232   101.92566
1147   0.07936   0.89828   -0.40028   0.18241   0.07936   0.89828   -0.40028   0.18241   101.95923
1148   0.07928   0.89895   -0.39866   0.18220   0.07928   0.89895   -0.39866   0.18220   101.97449
1149   0.07913   0.89831   -0.39995   0.18229   0.07913   0.89831   -0.39995   0.18229   101.90735
1150   0.07908   0.89822   -0.40062   0.18177   0.07908   0.89822   -0.40062   0.18177   101.91956
1151   0.07923   0.89804   -0.40086   0.18195   0.07923   0.89804   -0.40086   0.18195   102.00806
1152   0.07930   0.89892   -0.39894   0.18149   0.07930   0.89892   -0.39894   0.18149   101.92566
1153   0.07932   0.89886   -0.39866   0.18235   0.07932   0.89886   -0.39866   0.18235   101.85547
1154   0.07921   0.89935   -0.39866   0.18021   0.07921   0.89935   -0.39866   0.18021   101.88293
1155   0.07919   0.89834   -0.40098   0.18058   0.07919   0.89834   -0.40098   0.18058   102.01111
1156   0.07927   0.89843   -0.39906   0.18375   0.07927   0.89843   -0.39906   0.18375   101.91650
1157   0.07931   0.89792   -0.40001   0.18381   0.07931   0.89792   -0.40001   0.18381   101.87988
1158   0.07923   0.89926   -0.39811   0.18183   0.07923   0.89926   -0.39811   0.18183   101.91650
1159   0.07919   0.89889   -0.39897   0.18174   0.07919   0.89889   -0.39897   0.18174   101.99890
1160   0.07932   0.89837   -0.39979   0.18268   0.07932   0.89837   -0.39979   0.18268   101.91345
1161   0.07929   0.89779   -0.40080   0.18360   0.07929   0.89779   -0.40080   0.18360   101.90430
1162   0.07919   0.89785   -0.40147   0.18165   0.07919   0.89785   -0.40147   0.18165   102.02332
1163   0.07923   0.89770   -0.40172   0.18201   0.07923   0.89770   -0.40172   0.18201   102.03247
1164   0.07928   0.89865   -0.39949   0.18168   0.07928   0.89865   -0.39949   0.18168   101.85852
1165   0.07903   0.89834   -0.40059   0.18046   0.07903   0.89834   -0.40059   0.18046   101.95618
1166   0.07908   0.89831   -0.40077   0.18082   0.07908   0.89831   -0.40077   0.18082   102.04773
1167   0.07924   0.89816   -0.40031   0.18192   0.07924   0.89816   -0.40031   0.18192   101.95007
1168   0.07921   0.89846   -0.39976   0.18192   0.07921   0.89846   -0.39976   0.18192   101.87073
1169   0.07917   0.89779   -0.40162   0.18128   0.07917   0.89779   -0.40162   0.18128   101.98669
1170   0.07914   0.89822   -0.40065   0.18094   0.07914   0.89822   -0.40065   0.18094   102.03552
1171   0.07923   0.89804   -0.40110   0.18134   0.07923   0.89804   -0.40110   0.18134   101.97449
1172   0.07922   0.89816   -0.40052   0.18183   0.07922   0.89816   -0.40052   0.18183   101.92871
1173   0.07922   0.89831   -0.40043   0.18155   0.07922   0.89831   -0.40043   0.18155   101.98669
1174   0.07920   0.89840   -0.40052   0.18101   0.07920   0.89840   -0.40052   0.18101   101.99890
1175   0.07923   0.89782   -0.40083   0.18284   0.07923   0.89782   -0.40083   0.18284   101.95007
1176   0.07922   0.89810   -0.40059   0.18201   0.07922   0.89810   -0.40059   0.18201   101.92871
1177   0.07913   0.89801   -0.40120   0.18152   0.07913   0.89801   -0.40120   0.18152   102.01111
1178   0.07918   0.89828   -0.40031   0.18152   0.07918   0.89828   -0.40031   0.18152   101.92871
1179   0.07920   0.89856   -0.39979   0.18152   0.07920   0.89856   -0.39979   0.18152   101.91650
1180   0.07919   0.89837   -0.40043   0.18134   0.07919   0.89837   -0.40043   0.18134   101.97449
1181   0.07918   0.89792   -0.40123   0.18165   0.07918   0.89792   -0.40123   0.18165   102.02332
1182   0.07924   0.89792   -0.40059   0.18293   0.07924   0.89792   -0.40059   0.18293   101.91650
1183   0.07923   0.89801   -0.40184   0.18033   0.07923   0.89801   -0.40184   0.18033   101.97449
1184   0.07919   0.89770   -0.40162   0.18165   0.07919   0.89770   -0.40162   0.18165   102.02332
1185   0.07924   0.89712   -0.40324   0.18097   0.07924   0.89712   -0.40324   0.18097   102.04468
1186   0.07929   0.89749   -0.40129   0.18345   0.07929   0.89749   -0.40129   0.18345   101.92566
1187   0.07926   0.89770   -0.40190   0.18125   0.07926   0.89770   -0.40190   0.18125   102.02026
1188   0.07919   0.89813   -0.40135   0.18012   0.07919   0.89813   -0.40135   0.18012   102.06909
1189   0.07923   0.89737   -0.40239   0.18149   0.07923   0.89737   -0.40239   0.18149   101.96228
1190   0.07923   0.89737   -0.40181   0.18290   0.07923   0.89737   -0.40181   0.18290   101.95007
1191   0.07909   0.89801   -0.40150   0.18039   0.07909   0.89801   -0.40150   0.18039   102.01416
1192   0.07913   0.89776   -0.40162   0.18119   0.07913   0.89776   -0.40162   0.18119   102.05688
1193   0.07920   0.89770   -0.40147   0.18268   0.07920   0.89770   -0.40147   0.18268   101.94092
1194   0.07922   0.89731   -0.40263   0.18177   0.07922   0.89731   -0.40263   0.18177   101.95313
1195   0.07918   0.89743   -0.40281   0.18039   0.07918   0.89743   -0.40281   0.18039   102.04468
1196   0.07916   0.89758   -0.40214   0.18113   0.07916   0.89758   -0.40214   0.18113   102.05688
1197   0.07925   0.89795   -0.40117   0.18180   0.07925   0.89795   -0.40117   0.18180   101.93787
1198   0.07926   0.89749   -0.40220   0.18094   0.07926   0.89749   -0.40220   0.18094   101.97449
1199   0.07920   0.89785   -0.40138   0.18149   0.07920   0.89785   -0.40138   0.18149   102.06909
1200   0.07922   0.89718   -0.40251   0.18213   0.07922   0.89718   -0.40251   0.18213   102.00806
1201   0.07930   0.89828   -0.40080   0.18097   0.07930   0.89828   -0.40080   0.18097   101.95007
1202   0.07923   0.89764   -0.40168   0.18168   0.07923   0.89764   -0.40168   0.18168   101.99890
1203   0.07915   0.89752   -0.40199   0.18186   0.07915   0.89752   -0.40199   0.18186   102.06909
1204   0.07916   0.89743   -0.40233   0.18155   0.07916   0.89743   -0.40233   0.18155   102.01111
1205   0.07913   0.89776   -0.40205   0.18052   0.07913   0.89776   -0.40205   0.18052   101.99890
1206   0.07916   0.89746   -0.40236   0.18122   0.07916   0.89746   -0.40236   0.18122   101.98669
1207   0.07914   0.89761   -0.40306   0.17978   0.07914   0.89761   -0.40306   0.17978   102.01111
1208   0.07922   0.89731   -0.40193   0.18278   0.07922   0.89731   -0.40193   0.18278   101.94092
1209   0.07920   0.89761   -0.40251   0.18046   0.07920   0.89761   -0.40251   0.18046   101.96228
1210   0.07918   0.89718   -0.40321   0.18097   0.07918   0.89718   -0.40321   0.18097   102.05688
1211   0.07925   0.89776   -0.40153   0.18183   0.07925   0.89776   -0.40153   0.18183   101.97449
1212   0.07927   0.89697   -0.40379   0.18079   0.07927   0.89697   -0.40379   0.18079   101.97449
1213   0.07922   0.89724   -0.40333   0.18036   0.07922   0.89724   -0.40333   0.18036   102.03247
1214   0.07923   0.89773   -0.40153   0.18204   0.07923   0.89773   -0.40153   0.18204   102.00806
1215   0.07933   0.89721   -0.40245   0.18192   0.07933   0.89721   -0.40245   0.18192   101.92566
1216   0.07924   0.89737   -0.40266   0.18125   0.07924   0.89737   -0.40266   0.18125   101.99585
1217   0.07913   0.89776   -0.40226   0.18039   0.07913   0.89776   -0.40226   0.18039   102.09351
1218   0.07913   0.89743   -0.40294   0.18021   0.07913   0.89743   -0.40294   0.18021   102.02332
1219   0.07919   0.89743   -0.40242   0.18146   0.07919   0.89743   -0.40242   0.18146   101.92871
1220   0.07915   0.89700   -0.40312   0.18216   0.07915   0.89700   -0.40312   0.18216   102.01111
1221   0.07913   0.89706   -0.40394   0.18030   0.07913   0.89706   -0.40394   0.18030   102.06909
1222   0.07918   0.89685   -0.40376   0.18177   0.07918   0.89685   -0.40376   0.18177   102.01111
1223   0.07924   0.89715   -0.40272   0.18235   0.07924   0.89715   -0.40272   0.18235   101.92871
1224   0.07918   0.89755   -0.40291   0.17985   0.07918   0.89755   -0.40291   0.17985   102.02332
1225   0.07916   0.89679   -0.40367   0.18119   0.07916   0.89679   -0.40367   0.18119   102.06909
1226   0.07927   0.89734   -0.40324   0.18000   0.07927   0.89734   -0.40324   0.18000   101.97449
1227   0.07933   0.89746   -0.40257   0.18097   0.07933   0.89746   -0.40257   0.18097   101.92566
1228   0.07929   0.89734   -0.40272   0.18104   0.07929   0.89734   -0.40272   0.18104   102.05383
1229   0.07930   0.89673   -0.40367   0.18235   0.07930   0.89673   -0.40367   0.18235   102.06604
1230   0.07927   0.89697   -0.40303   0.18216   0.07927   0.89697   -0.40303   0.18216   101.99585
1231   0.07919   0.89718   -0.40345   0.18088   0.07919   0.89718   -0.40345   0.18088   101.99890
1232   0.07910   0.89706   -0.40367   0.18006   0.07910   0.89706   -0.40367   0.18006   102.06909
1233   0.07917   0.89691   -0.40318   0.18204   0.07917   0.89691   -0.40318   0.18204   102.02332
1234   0.07918   0.89737   -0.40278   0.18107   0.07918   0.89737   -0.40278   0.18107   101.96533
1235   0.07915   0.89648   -0.40437   0.18146   0.07915   0.89648   -0.40437   0.18146   102.04468
1236   0.07913   0.89694   -0.40358   0.18143   0.07913   0.89694   -0.40358   0.18143   102.04773
1237   0.07921   0.89718   -0.40287   0.18220   0.07921   0.89718   -0.40287   0.18220   101.97449
1238   0.07920   0.89697   -0.40339   0.18177   0.07920   0.89697   -0.40339   0.18177   102.04468
1239   0.07919   0.89697   -0.40339   0.18177   0.07919   0.89697   -0.40339   0.18177   102.05688
1240   0.07922   0.89715   -0.40287   0.18198   0.07922   0.89715   -0.40287   0.18198   102.02026
1241   0.07925   0.89694   -0.40336   0.18216   0.07925   0.89694   -0.40336   0.18216   102.00806
1242   0.07920   0.89712   -0.40291   0.18207   0.07920   0.89712   -0.40291   0.18207   102.02026
1243   0.07919   0.89666   -0.40410   0.18137   0.07919   0.89666   -0.40410   0.18137   102.07825
1244   0.07925   0.89709   -0.40257   0.18223   0.07925   0.89709   -0.40257   0.18223   102.00806
1245   0.07922   0.89679   -0.40385   0.18131   0.07922   0.89679   -0.40385   0.18131   101.97449
1246   0.07904   0.89724   -0.40312   0.18110   0.07904   0.89724   -0.40312   0.18110   102.05994
1247   0.07887   0.89785   -0.40196   0.18070   0.07887   0.89785   -0.40196   0.18070   102.09961
1248   0.07906   0.89782   -0.40144   0.18180   0.07906   0.89782   -0.40144   0.18180   101.93176
1249   0.07924   0.89721   -0.40284   0.18210   0.07924   0.89721   -0.40284   0.18210   101.95007
1250   0.07914   0.89721   -0.40303   0.18101   0.07914   0.89721   -0.40303   0.18101   102.08130
1251   0.07908   0.89764   -0.40205   0.18149   0.07908   0.89764   -0.40205   0.18149   101.97754
1252   0.07922   0.89755   -0.40165   0.18259   0.07922   0.89755   -0.40165   0.18259   101.92871
1253   0.07922   0.89694   -0.40352   0.18137   0.07922   0.89694   -0.40352   0.18137   101.99890
1254   0.07918   0.89752   -0.40251   0.18085   0.07918   0.89752   -0.40251   0.18085   102.04468
1255   0.07916   0.89706   -0.40303   0.18189   0.07916   0.89706   -0.40303   0.18189   102.03552
1256   0.07922   0.89648   -0.40382   0.18323   0.07922   0.89648   -0.40382   0.18323   101.96228
1257   0.07920   0.89694   -0.40364   0.18149   0.07920   0.89694   -0.40364   0.18149   102.02026
1258   0.07913   0.89734   -0.40220   0.18293   0.07913   0.89734   -0.40220   0.18293   102.01111
1259   0.07918   0.89770   -0.40147   0.18229   0.07918   0.89770   -0.40147   0.18229   101.97449
1260   0.07913   0.89737   -0.40327   0.17994   0.07913   0.89737   -0.40327   0.17994   101.95313
1261   0.07910   0.89770   -0.40172   0.18168   0.07910   0.89770   -0.40172   0.18168   102.04773
1262   0.07910   0.89685   -0.40297   0.18284   0.07910   0.89685   -0.40297   0.18284   102.04773
1263   0.07925   0.89712   -0.40324   0.18155   0.07925   0.89712   -0.40324   0.18155   101.98669
1264   0.07930   0.89758   -0.40260   0.18018   0.07930   0.89758   -0.40260   0.18018   101.96228
1265   0.07918   0.89721   -0.40318   0.18049   0.07918   0.89721   -0.40318   0.18049   102.09045
1266   0.07917   0.89691   -0.40336   0.18216   0.07917   0.89691   -0.40336   0.18216   101.99890
1267   0.07932   0.89685   -0.40321   0.18226   0.07932   0.89685   -0.40321   0.18226   102.02942
1268   0.07929   0.89755   -0.40257   0.18097   0.07929   0.89755   -0.40257   0.18097   101.99585
1269   0.07921   0.89706   -0.40315   0.18107   0.07921   0.89706   -0.40315   0.18107   102.06909
1270   0.07933   0.89715   -0.40297   0.18149   0.07933   0.89715   -0.40297   0.18149   101.99585
1271   0.07923   0.89755   -0.40190   0.18204   0.07923   0.89755   -0.40190   0.18204   101.99890
1272   0.07918   0.89743   -0.40300   0.17994   0.07918   0.89743   -0.40300   0.17994   102.06909
1273   0.07914   0.89731   -0.40300   0.18085   0.07914   0.89731   -0.40300   0.18085   102.01111
1274   0.07920   0.89770   -0.40233   0.18027   0.07920   0.89770   -0.40233   0.18027   101.92871
1275   0.07915   0.89749   -0.40266   0.18070   0.07915   0.89749   -0.40266   0.18070   102.01111
1276   0.07912   0.89721   -0.40306   0.18064   0.07912   0.89721   -0.40306   0.18064   102.09351
1277   0.07925   0.89697   -0.40309   0.18213   0.07925   0.89697   -0.40309   0.18213   101.96228
1278   0.07923   0.89731   -0.40236   0.18171   0.07923   0.89731   -0.40236   0.18171   101.91650
1279   0.07914   0.89734   -0.40223   0.18207   0.07914   0.89734   -0.40223   0.18207   102.03552
1280   0.07917   0.89697   -0.40309   0.18198   0.07917   0.89697   -0.40309   0.18198   102.06909
1281   0.07929   0.89703   -0.40352   0.18131   0.07929   0.89703   -0.40352   0.18131   101.96228
1282   0.07926   0.89749   -0.40205   0.18155   0.07926   0.89749   -0.40205   0.18155   101.95007
1283   0.07920   0.89789   -0.40181   0.18036   0.07920   0.89789   -0.40181   0.18036   102.04468
1284   0.07922   0.89755   -0.40226   0.18131   0.07922   0.89755   -0.40226   0.18131   102.03247
1285   0.07923   0.89770   -0.40190   0.18094   0.07923   0.89770   -0.40190   0.18094   101.94092
1286   0.07922   0.89743   -0.40266   0.18101   0.07922   0.89743   -0.40266   0.18101   101.96228
1287   0.07908   0.89721   -0.40330   0.18043   0.07908   0.89721   -0.40330   0.18043   102.09351
1288   0.07914   0.89697   -0.40278   0.18296   0.07914   0.89697   -0.40278   0.18296   102.02332
1289   0.07919   0.89761   -0.40220   0.18122   0.07919   0.89761   -0.40220   0.18122   101.90735
1290   0.07918   0.89706   -0.40318   0.18128   0.07918   0.89706   -0.40318   0.18128   102.03247
1291   0.07918   0.89779   -0.40086   0.18253   0.07918   0.89779   -0.40086   0.18253   102.01111
1292   0.07922   0.89715   -0.40254   0.18268   0.07922   0.89715   -0.40254   0.18268   101.97449
1293   0.07922   0.89749   -0.40187   0.18216   0.07922   0.89749   -0.40187   0.18216   101.98669
1294   0.07920   0.89706   -0.40318   0.18116   0.07920   0.89706   -0.40318   0.18116   102.05688
1295   0.07924   0.89724   -0.40257   0.18229   0.07924   0.89724   -0.40257   0.18229   101.98669
1296   0.07926   0.89715   -0.40220   0.18281   0.07926   0.89715   -0.40220   0.18281   101.93787
1297   0.07923   0.89752   -0.40272   0.18030   0.07923   0.89752   -0.40272   0.18030   102.00806
1298   0.07919   0.89706   -0.40349   0.18110   0.07919   0.89706   -0.40349   0.18110   102.07825
1299   0.07924   0.89746   -0.40214   0.18177   0.07924   0.89746   -0.40214   0.18177   101.92871
1300   0.07920   0.89758   -0.40196   0.18174   0.07920   0.89758   -0.40196   0.18174   101.98669
1301   0.07909   0.89755   -0.40223   0.18094   0.07909   0.89755   -0.40223   0.18094   102.07214
1302   0.07918   0.89773   -0.40162   0.18232   0.07918   0.89773   -0.40162   0.18232   101.97449
1303   0.07922   0.89706   -0.40330   0.18091   0.07922   0.89706   -0.40330   0.18091   101.94092
1304   0.07921   0.89727   -0.40275   0.18149   0.07921   0.89727   -0.40275   0.18149   102.01111
1305   0.07914   0.89712   -0.40275   0.18186   0.07914   0.89712   -0.40275   0.18186   102.08130
1306   0.07923   0.89703   -0.40245   0.18323   0.07923   0.89703   -0.40245   0.18323   101.98669
1307   0.07926   0.89740   -0.40175   0.18281   0.07926   0.89740   -0.40175   0.18281   101.93787
1308   0.07917   0.89782   -0.40147   0.18140   0.07917   0.89782   -0.40147   0.18140   102.05688
1309   0.07918   0.89773   -0.40226   0.18033   0.07918   0.89773   -0.40226   0.18033   102.09045
1310   0.07924   0.89724   -0.40229   0.18207   0.07924   0.89724   -0.40229   0.18207   101.97449
1311   0.07929   0.89776   -0.40175   0.18155   0.07929   0.89776   -0.40175   0.18155   101.91650
1312   0.07922   0.89682   -0.40312   0.18278   0.07922   0.89682   -0.40312   0.18278   102.09045
1313   0.07916   0.89740   -0.40266   0.18082   0.07916   0.89740   -0.40266   0.18082   102.06909
1314   0.07917   0.89773   -0.40135   0.18241   0.07917   0.89773   -0.40135   0.18241   101.94092
1315   0.07913   0.89712   -0.40291   0.18186   0.07913   0.89712   -0.40291   0.18186   101.98975
1316   0.07915   0.89746   -0.40263   0.18094   0.07915   0.89746   -0.40263   0.18094   102.04468
1317   0.07915   0.89779   -0.40126   0.18192   0.07915   0.89779   -0.40126   0.18192   102.01111
1318   0.07922   0.89703   -0.40281   0.18235   0.07922   0.89703   -0.40281   0.18235   102.00806
1319   0.07920   0.89764   -0.40205   0.18107   0.07920   0.89764   -0.40205   0.18107   102.01111
1320   0.07919   0.89749   -0.40205   0.18210   0.07919   0.89749   -0.40205   0.18210   101.99890
1321   0.07923   0.89734   -0.40263   0.18192   0.07923   0.89734   -0.40263   0.18192   101.99890
1322   0.07923   0.89721   -0.40284   0.18149   0.07923   0.89721   -0.40284   0.18149   101.98669
1323   0.07922   0.89734   -0.40178   0.18345   0.07922   0.89734   -0.40178   0.18345   102.00806
1324   0.07922   0.89737   -0.40208   0.18256   0.07922   0.89737   -0.40208   0.18256   102.03247
1325   0.07927   0.89776   -0.40117   0.18271   0.07927   0.89776   -0.40117   0.18271   101.93787
1326   0.07923   0.89776   -0.40193   0.18097   0.07923   0.89776   -0.40193   0.18097   101.97449
1327   0.07913   0.89773   -0.40135   0.18189   0.07913   0.89773   -0.40135   0.18189   101.99890
1328   0.07900   0.89767   -0.40150   0.18238   0.07900   0.89767   -0.40150   0.18238   101.93481
1329   0.07903   0.89749   -0.40156   0.18281   0.07903   0.89749   -0.40156   0.18281   101.98059
1330   0.07918   0.89770   -0.40162   0.18180   0.07918   0.89770   -0.40162   0.18180   102.03247
1331   0.07919   0.89789   -0.40077   0.18250   0.07919   0.89789   -0.40077   0.18250   101.97449
1332   0.07924   0.89764   -0.40205   0.18146   0.07924   0.89764   -0.40205   0.18146   101.94092
1333   0.07922   0.89740   -0.40199   0.18241   0.07922   0.89740   -0.40199   0.18241   101.94092
1334   0.07921   0.89752   -0.40248   0.18079   0.07921   0.89752   -0.40248   0.18079   102.04468
1335   0.07929   0.89795   -0.40056   0.18302   0.07929   0.89795   -0.40056   0.18302   101.96228
1336   0.07937   0.89795   -0.40022   0.18345   0.07937   0.89795   -0.40022   0.18345   101.86768
1337   0.07922   0.89761   -0.40172   0.18207   0.07922   0.89761   -0.40172   0.18207   101.98669
1338   0.07921   0.89789   -0.40086   0.18247   0.07921   0.89789   -0.40086   0.18247   102.03247
1339   0.07933   0.89727   -0.40208   0.18296   0.07933   0.89727   -0.40208   0.18296   101.99585
1340   0.07926   0.89792   -0.40071   0.18235   0.07926   0.89792   -0.40071   0.18235   101.93787
1341   0.07913   0.89810   -0.40077   0.18180   0.07913   0.89810   -0.40077   0.18180   102.02332
1342   0.07909   0.89798   -0.40107   0.18192   0.07909   0.89798   -0.40107   0.18192   102.02332
1343   0.07921   0.89758   -0.40104   0.18400   0.07921   0.89758   -0.40104   0.18400   101.92871
1344   0.07922   0.89810   -0.40092   0.18168   0.07922   0.89810   -0.40092   0.18168   101.94092
1345   0.07918   0.89734   -0.40287   0.18131   0.07918   0.89734   -0.40287   0.18131   102.03247
1346   0.07918   0.89773   -0.40159   0.18195   0.07918   0.89773   -0.40159   0.18195   102.01111
1347   0.07933   0.89749   -0.40153   0.18305   0.07933   0.89749   -0.40153   0.18305   101.97144
1348   0.07940   0.89782   -0.40077   0.18305   0.07940   0.89782   -0.40077   0.18305   101.92566
1349   0.07915   0.89807   -0.40080   0.18186   0.07915   0.89807   -0.40080   0.18186   101.99890
1350   0.07915   0.89764   -0.40107   0.18329   0.07915   0.89764   -0.40107   0.18329   101.96533
1351   0.07929   0.89770   -0.40062   0.18363   0.07929   0.89770   -0.40062   0.18363   101.99585
1352   0.07936   0.89737   -0.40208   0.18250   0.07936   0.89737   -0.40208   0.18250   102.01721
1353   0.07927   0.89795   -0.40071   0.18293   0.07927   0.89795   -0.40071   0.18293   101.99585
1354   0.07924   0.89804   -0.39991   0.18397   0.07924   0.89804   -0.39991   0.18397   101.90430
1355   0.07920   0.89752   -0.40175   0.18226   0.07920   0.89752   -0.40175   0.18226   101.91650
1356   0.07913   0.89758   -0.40162   0.18238   0.07913   0.89758   -0.40162   0.18238   102.02332
1357   0.07921   0.89789   -0.40077   0.18278   0.07921   0.89789   -0.40077   0.18278   101.95313
1358   0.07923   0.89816   -0.40071   0.18204   0.07923   0.89816   -0.40071   0.18204   101.88293
1359   0.07920   0.89795   -0.40123   0.18146   0.07920   0.89795   -0.40123   0.18146   101.98669
1360   0.07914   0.89837   -0.39995   0.18241   0.07914   0.89837   -0.39995   0.18241   101.98975
1361   0.07927   0.89877   -0.39903   0.18192   0.07927   0.89877   -0.39903   0.18192   101.85852
1362   0.07931   0.89831   -0.39970   0.18320   0.07931   0.89831   -0.39970   0.18320   101.90430
1363   0.07933   0.89782   -0.40110   0.18293   0.07933   0.89782   -0.40110   0.18293   101.99585
1364   0.07924   0.89850   -0.39909   0.18394   0.07924   0.89850   -0.39909   0.18394   101.98669
1365   0.07912   0.89868   -0.39952   0.18168   0.07912   0.89868   -0.39952   0.18168   101.82800
1366   0.07920   0.89859   -0.39933   0.18284   0.07920   0.89859   -0.39933   0.18284   101.91650
1367   0.07925   0.89816   -0.40049   0.18180   0.07925   0.89816   -0.40049   0.18180   102.04468
1368   0.07916   0.89819   -0.40031   0.18247   0.07916   0.89819   -0.40031   0.18247   101.96533
1369   0.07914   0.89874   -0.39882   0.18284   0.07914   0.89874   -0.39882   0.18284   101.86157
1370   0.07909   0.89813   -0.40135   0.18061   0.07909   0.89813   -0.40135   0.18061   101.97754
1371   0.07916   0.89862   -0.39927   0.18216   0.07916   0.89862   -0.39927   0.18216   102.03552
1372   0.07916   0.89825   -0.39988   0.18305   0.07916   0.89825   -0.39988   0.18305   101.96533
1373   0.07921   0.89892   -0.39784   0.18390   0.07921   0.89892   -0.39784   0.18390   101.85852
1374   0.07921   0.89789   -0.40052   0.18354   0.07921   0.89789   -0.40052   0.18354   101.98669
1375   0.07914   0.89813   -0.39998   0.18323   0.07914   0.89813   -0.39998   0.18323   102.01111
1376   0.07924   0.89819   -0.39988   0.18342   0.07924   0.89819   -0.39988   0.18342   101.91650
1377   0.07927   0.89828   -0.39995   0.18290   0.07927   0.89828   -0.39995   0.18290   101.91650
1378   0.07923   0.89807   -0.40016   0.18268   0.07923   0.89807   -0.40016   0.18268   102.00806
1379   0.07923   0.89862   -0.39836   0.18412   0.07923   0.89862   -0.39836   0.18412   101.94092
1380   0.07931   0.89853   -0.39937   0.18281   0.07931   0.89853   -0.39937   0.18281   101.87988
1381   0.07923   0.89843   -0.39998   0.18201   0.07923   0.89843   -0.39998   0.18201   101.95007
1382   0.07919   0.89850   -0.39998   0.18146   0.07919   0.89850   -0.39998   0.18146   101.97449
1383   0.07918   0.89828   -0.39958   0.18323   0.07918   0.89828   -0.39958   0.18323   101.91650
1384   0.07916   0.89846   -0.39952   0.18259   0.07916   0.89846   -0.39952   0.18259   101.92871
1385   0.07916   0.89846   -0.40019   0.18134   0.07916   0.89846   -0.40019   0.18134   101.99890
1386   0.07916   0.89825   -0.39988   0.18290   0.07916   0.89825   -0.39988   0.18290   101.96533
1387   0.07928   0.89862   -0.39912   0.18317   0.07928   0.89862   -0.39912   0.18317   101.84631
1388   0.07922   0.89795   -0.40031   0.18308   0.07922   0.89795   -0.40031   0.18308   101.97449
1389   0.07919   0.89837   -0.40025   0.18152   0.07919   0.89837   -0.40025   0.18152   101.99890
1390   0.07922   0.89886   -0.39827   0.18378   0.07922   0.89886   -0.39827   0.18378   101.95007
1391   0.07930   0.89837   -0.39915   0.18381   0.07930   0.89837   -0.39915   0.18381   101.87988
1392   0.07922   0.89789   -0.40028   0.18394   0.07922   0.89789   -0.40028   0.18394   102.00806
1393   0.07921   0.89911   -0.39836   0.18210   0.07921   0.89911   -0.39836   0.18210   102.01111
1394   0.07928   0.89822   -0.39967   0.18345   0.07928   0.89822   -0.39967   0.18345   101.90430
1395   0.07929   0.89834   -0.40010   0.18207   0.07929   0.89834   -0.40010   0.18207   101.90430
1396   0.07918   0.89868   -0.39909   0.18265   0.07918   0.89868   -0.39909   0.18265   101.96533
1397   0.07909   0.89831   -0.40056   0.18146   0.07909   0.89831   -0.40056   0.18146   102.03552
1398   0.07923   0.89795   -0.40089   0.18259   0.07923   0.89795   -0.40089   0.18259   101.90430
1399   0.07922   0.89837   -0.39995   0.18198   0.07922   0.89837   -0.39995   0.18198   101.94092
1400   0.07916   0.89859   -0.39875   0.18357   0.07916   0.89859   -0.39875   0.18357   102.01111
1401   0.07921   0.89813   -0.40049   0.18195   0.07921   0.89813   -0.40049   0.18195   101.98669
1402   0.07928   0.89859   -0.39927   0.18256   0.07928   0.89859   -0.39927   0.18256   101.91650
1403   0.07922   0.89871   -0.39918   0.18220   0.07922   0.89871   -0.39918   0.18220   101.94092
1404   0.07920   0.89868   -0.39988   0.18113   0.07920   0.89868   -0.39988   0.18113   102.01111
1405   0.07926   0.89853   -0.39897   0.18339   0.07926   0.89853   -0.39897   0.18339   101.92871
1406   0.07928   0.89868   -0.39933   0.18235   0.07928   0.89868   -0.39933   0.18235   101.91650
1407   0.07924   0.89850   -0.39918   0.18317   0.07924   0.89850   -0.39918   0.18317   101.95007
1408   0.07923   0.89862   -0.39924   0.18250   0.07923   0.89862   -0.39924   0.18250   101.96228
1409   0.07925   0.89880   -0.39796   0.18442   0.07925   0.89880   -0.39796   0.18442   101.90430
1410   0.07921   0.89843   -0.39937   0.18256   0.07921   0.89843   -0.39937   0.18256   101.95313
1411   0.07912   0.89856   -0.40001   0.18143   0.07912   0.89856   -0.40001   0.18143   101.97754
1412   0.07921   0.89883   -0.39912   0.18152   0.07921   0.89883   -0.39912   0.18152   101.96228
1413   0.07926   0.89862   -0.39964   0.18189   0.07926   0.89862   -0.39964   0.18189   101.89209
1414   0.07921   0.89825   -0.39964   0.18302   0.07921   0.89825   -0.39964   0.18302   101.99890
1415   0.07917   0.89908   -0.39851   0.18201   0.07917   0.89908   -0.39851   0.18201   101.95313
1416   0.07924   0.89871   -0.39882   0.18265   0.07924   0.89871   -0.39882   0.18265   101.95007
1417   0.07928   0.89840   -0.40001   0.18213   0.07928   0.89840   -0.40001   0.18213   101.91650
1418   0.07922   0.89859   -0.39949   0.18232   0.07922   0.89859   -0.39949   0.18232   101.95313
1419   0.07926   0.89846   -0.40025   0.18146   0.07926   0.89846   -0.40025   0.18146   101.96228
1420   0.07927   0.89895   -0.39790   0.18363   0.07927   0.89895   -0.39790   0.18363   101.87988
1421   0.07926   0.89846   -0.39940   0.18290   0.07926   0.89846   -0.39940   0.18290   101.96228
1422   0.07921   0.89853   -0.39988   0.18195   0.07921   0.89853   -0.39988   0.18195   101.98669
1423   0.07922   0.89859   -0.39882   0.18354   0.07922   0.89859   -0.39882   0.18354   101.91650
1424   0.07923   0.89892   -0.39796   0.18378   0.07923   0.89892   -0.39796   0.18378   101.87073
1425   0.07917   0.89901   -0.39894   0.18116   0.07917   0.89901   -0.39894   0.18116   101.95313
1426   0.07913   0.89886   -0.39915   0.18174   0.07913   0.89886   -0.39915   0.18174   102.05688
1427   0.07920   0.89874   -0.39900   0.18311   0.07920   0.89874   -0.39900   0.18311   101.92871
1428   0.07932   0.89862   -0.39927   0.18265   0.07932   0.89862   -0.39927   0.18265   101.85547
1429   0.07926   0.89843   -0.39863   0.18439   0.07926   0.89843   -0.39863   0.18439   101.98669
1430   0.07924   0.89966   -0.39753   0.18159   0.07924   0.89966   -0.39753   0.18159   102.03247
1431   0.07925   0.89911   -0.39866   0.18165   0.07925   0.89911   -0.39866   0.18165   101.85852
1432   0.07929   0.89911   -0.39842   0.18171   0.07929   0.89911   -0.39842   0.18171   101.89209
1433   0.07924   0.89883   -0.39933   0.18143   0.07924   0.89883   -0.39933   0.18143   101.98669
1434   0.07923   0.89868   -0.39900   0.18265   0.07923   0.89868   -0.39900   0.18265   101.95007
1435   0.07930   0.89877   -0.39857   0.18348   0.07930   0.89877   -0.39857   0.18348   101.85852
1436   0.07922   0.89798   -0.40120   0.18168   0.07922   0.89798   -0.40120   0.18168   101.95313
1437   0.07913   0.89837   -0.40025   0.18155   0.07913   0.89837   -0.40025   0.18155   102.03552
1438   0.07914   0.89889   -0.39872   0.18274   0.07914   0.89889   -0.39872   0.18274   101.93176
1439   0.07916   0.89798   -0.40104   0.18162   0.07916   0.89798   -0.40104   0.18162   102.01111
1440   0.07916   0.89926   -0.39781   0.18241   0.07916   0.89926   -0.39781   0.18241   101.94092
1441   0.07916   0.89859   -0.40007   0.18116   0.07916   0.89859   -0.40007   0.18116   101.97754
1442   0.07924   0.89874   -0.39918   0.18226   0.07924   0.89874   -0.39918   0.18226   101.90430
1443   0.07920   0.89822   -0.39988   0.18253   0.07920   0.89822   -0.39988   0.18253   101.97449
1444   0.07920   0.89880   -0.39946   0.18140   0.07920   0.89880   -0.39946   0.18140   101.96228
1445   0.07922   0.89871   -0.39940   0.18189   0.07922   0.89871   -0.39940   0.18189   101.94092
1446   0.07922   0.89840   -0.39970   0.18271   0.07922   0.89840   -0.39970   0.18271   101.91650
1447   0.07900   0.89798   -0.40138   0.18076   0.07900   0.89798   -0.40138   0.18076   102.06299
1448   0.07905   0.89877   -0.39933   0.18125   0.07905   0.89877   -0.39933   0.18125   102.00195
1449   0.07935   0.89883   -0.39857   0.18332   0.07935   0.89883   -0.39857   0.18332   101.85547
1450   0.07924   0.89807   -0.40056   0.18226   0.07924   0.89807   -0.40056   0.18226   101.92871
1451   0.07907   0.89850   -0.40019   0.18143   0.07907   0.89850   -0.40019   0.18143   102.02637
1452   0.07906   0.89914   -0.39830   0.18177   0.07906   0.89914   -0.39830   0.18177   101.93176
1453   0.07922   0.89801   -0.40104   0.18186   0.07922   0.89801   -0.40104   0.18186   101.92871
1454   0.07920   0.89865   -0.39949   0.18195   0.07920   0.89865   -0.39949   0.18195   101.91650
1455   0.07912   0.89889   -0.39964   0.18058   0.07912   0.89889   -0.39964   0.18058   102.00195
1456   0.07917   0.89923   -0.39860   0.18073   0.07917   0.89923   -0.39860   0.18073   101.92871
1457   0.07928   0.89886   -0.39924   0.18162   0.07928   0.89886   -0.39924   0.18162   101.85852
1458   0.07924   0.89895   -0.39894   0.18149   0.07924   0.89895   -0.39894   0.18149   101.95007
1459   0.07914   0.89810   -0.40104   0.18088   0.07914   0.89810   -0.40104   0.18088   102.10266
1460   0.07927   0.89856   -0.39927   0.18287   0.07927   0.89856   -0.39927   0.18287   101.92871
1461   0.07930   0.89886   -0.39918   0.18140   0.07930   0.89886   -0.39918   0.18140   101.90430
1462   0.07923   0.89932   -0.39778   0.18247   0.07923   0.89932   -0.39778   0.18247   101.98669
1463   0.07929   0.89911   -0.39845   0.18195   0.07929   0.89911   -0.39845   0.18195   101.98364
1464   0.07934   0.89789   -0.40110   0.18271   0.07934   0.89789   -0.40110   0.18271   101.92566
1465   0.07924   0.89865   -0.39937   0.18244   0.07924   0.89865   -0.39937   0.18244   101.94092
1466   0.07912   0.89850   -0.40019   0.18101   0.07912   0.89850   -0.40019   0.18101   102.01111
1467   0.07930   0.89840   -0.39995   0.18201   0.07930   0.89840   -0.39995   0.18201   101.95007
1468   0.07930   0.89914   -0.39836   0.18213   0.07930   0.89914   -0.39836   0.18213   101.89209
1469   0.07925   0.89850   -0.39955   0.18250   0.07925   0.89850   -0.39955   0.18250   101.93787
1470   0.07922   0.89883   -0.39921   0.18155   0.07922   0.89883   -0.39921   0.18155   101.97449
1471   0.07930   0.89837   -0.39976   0.18305   0.07930   0.89837   -0.39976   0.18305   101.92566
1472   0.07933   0.89834   -0.40004   0.18183   0.07933   0.89834   -0.40004   0.18183   101.92566
1473   0.07923   0.89853   -0.39970   0.18198   0.07923   0.89853   -0.39970   0.18198   101.97449
1474   0.07926   0.89874   -0.39918   0.18244   0.07926   0.89874   -0.39918   0.18244   101.99585
1475   0.07931   0.89850   -0.39988   0.18183   0.07931   0.89850   -0.39988   0.18183   101.90430
1476   0.07928   0.89837   -0.39995   0.18235   0.07928   0.89837   -0.39995   0.18235   101.98364
1477   0.07921   0.89840   -0.40019   0.18128   0.07921   0.89840   -0.40019   0.18128   101.99890
1478   0.07924   0.89776   -0.40190   0.18064   0.07924   0.89776   -0.40190   0.18064   101.99585
1479   0.07922   0.89862   -0.39930   0.18259   0.07922   0.89862   -0.39930   0.18259   101.91650
1480   0.07911   0.89828   -0.40037   0.18174   0.07911   0.89828   -0.40037   0.18174   102.04773
1481   0.07917   0.89892   -0.39882   0.18165   0.07917   0.89892   -0.39882   0.18165   102.01111
1482   0.07924   0.89901   -0.39879   0.18192   0.07924   0.89901   -0.39879   0.18192   101.83411
1483   0.07927   0.89859   -0.40004   0.18082   0.07927   0.89859   -0.40004   0.18082   101.91650
1484   0.07917   0.89874   -0.39985   0.18061   0.07917   0.89874   -0.39985   0.18061   102.03247
1485   0.07923   0.89898   -0.39943   0.18055   0.07923   0.89898   -0.39943   0.18055   101.96228
1486   0.07933   0.89883   -0.39937   0.18137   0.07933   0.89883   -0.39937   0.18137   101.89209
1487   0.07926   0.89834   -0.40037   0.18183   0.07926   0.89834   -0.40037   0.18183   101.95007
1488   0.07923   0.89798   -0.40126   0.18119   0.07923   0.89798   -0.40126   0.18119   102.04468
1489   0.07924   0.89837   -0.39933   0.18378   0.07924   0.89837   -0.39933   0.18378   101.92871
1490   0.07933   0.89880   -0.39918   0.18186   0.07933   0.89880   -0.39918   0.18186   101.90125
1491   0.07922   0.89859   -0.40001   0.18104   0.07922   0.89859   -0.40001   0.18104   101.99890
1492   0.07918   0.89819   -0.40098   0.18027   0.07918   0.89819   -0.40098   0.18027   102.06909
1493   0.07919   0.89877   -0.39976   0.18064   0.07919   0.89877   -0.39976   0.18064   101.92871
1494   0.07919   0.89850   -0.40059   0.18058   0.07919   0.89850   -0.40059   0.18058   101.92871
1495   0.07915   0.89904   -0.39888   0.18165   0.07915   0.89904   -0.39888   0.18165   101.97754
1496   0.07918   0.89877   -0.39930   0.18168   0.07918   0.89877   -0.39930   0.18168   101.98669
1497   0.07923   0.89856   -0.39937   0.18232   0.07923   0.89856   -0.39937   0.18232   101.92871
1498   0.07920   0.89846   -0.40037   0.18033   0.07920   0.89846   -0.40037   0.18033   101.98669
1499   0.07923   0.89822   -0.40104   0.18079   0.07923   0.89822   -0.40104   0.18079   101.99890
1500   0.07924   0.89862   -0.39930   0.18290   0.07924   0.89862   -0.39930   0.18290   101.88293
1501   0.07925   0.89874   -0.39927   0.18204   0.07925   0.89874   -0.39927   0.18204   101.96228
1502   0.07922   0.89837   -0.40074   0.18073   0.07922   0.89837   -0.40074   0.18073   101.99890
1503   0.07927   0.89901   -0.39900   0.18134   0.07927   0.89901   -0.39900   0.18134   101.92871
1504   0.07928   0.89877   -0.39930   0.18180   0.07928   0.89877   -0.39930   0.18180   101.89209
1505   0.07922   0.89871   -0.39976   0.18073   0.07922   0.89871   -0.39976   0.18073   101.95313
1506   0.07915   0.89895   -0.39930   0.18070   0.07915   0.89895   -0.39930   0.18070   102.03552
1507   0.07916   0.89871   -0.39970   0.18097   0.07916   0.89871   -0.39970   0.18097   101.91956
1508   0.07921   0.89914   -0.39888   0.18064   0.07921   0.89914   -0.39888   0.18064   101.90430
1509   0.07913   0.89862   -0.39985   0.18128   0.07913   0.89862   -0.39985   0.18128   102.03552
1510   0.07916   0.89850   -0.40101   0.17945   0.07916   0.89850   -0.40101   0.17945   102.04468
1511   0.07925   0.89950   -0.39793   0.18134   0.07925   0.89950   -0.39793   0.18134   101.85852
1512   0.07925   0.89856   -0.40040   0.18076   0.07925   0.89856   -0.40040   0.18076   101.93787
1513   0.07921   0.89825   -0.40141   0.17957   0.07921   0.89825   -0.40141   0.17957   102.03247
1514   0.07922   0.89831   -0.40062   0.18055   0.07922   0.89831   -0.40062   0.18055   102.03247
1515   0.07931   0.89862   -0.39964   0.18125   0.07931   0.89862   -0.39964   0.18125   101.89209
1516   0.07926   0.89770   -0.40208   0.18097   0.07926   0.89770   -0.40208   0.18097   102.00806
1517   0.07919   0.89862   -0.39988   0.18119   0.07919   0.89862   -0.39988   0.18119   102.07825
1518   0.07922   0.89865   -0.39906   0.18290   0.07922   0.89865   -0.39906   0.18290   101.95313
1519   0.07923   0.89804   -0.40150   0.18073   0.07923   0.89804   -0.40150   0.18073   101.94092
1520   0.07922   0.89810   -0.40141   0.18067   0.07922   0.89810   -0.40141   0.18067   101.96228
1521   0.07911   0.89819   -0.40126   0.17982   0.07911   0.89819   -0.40126   0.17982   102.04773
1522   0.07920   0.89886   -0.39955   0.18012   0.07920   0.89886   -0.39955   0.18012   101.91650
1523   0.07922   0.89850   -0.39998   0.18155   0.07922   0.89850   -0.39998   0.18155   101.91650
1524   0.07919   0.89862   -0.39988   0.18104   0.07919   0.89862   -0.39988   0.18104   101.96533
1525   0.07916   0.89795   -0.40141   0.18104   0.07916   0.89795   -0.40141   0.18104   102.02332
1526   0.07922   0.89825   -0.40077   0.18064   0.07922   0.89825   -0.40077   0.18064   101.96228
1527   0.07922   0.89798   -0.40175   0.18018   0.07922   0.89798   -0.40175   0.18018   101.97449
1528   0.07900   0.89850   -0.40089   0.17939   0.07900   0.89850   -0.40089   0.17939   102.03857
1529   0.07913   0.89825   -0.40104   0.18018   0.07913   0.89825   -0.40104   0.18018   101.97754
1530   0.07925   0.89813   -0.40117   0.18097   0.07925   0.89813   -0.40117   0.18097   101.95007
1531   0.07928   0.89785   -0.40229   0.17951   0.07928   0.89785   -0.40229   0.17951   101.99585
1532   0.07919   0.89804   -0.40150   0.18021   0.07919   0.89804   -0.40150   0.18021   102.01111
1533   0.07922   0.89834   -0.40086   0.18046   0.07922   0.89834   -0.40086   0.18046   101.92871
1534   0.07918   0.89770   -0.40199   0.18091   0.07918   0.89770   -0.40199   0.18091   102.04468
1535   0.07913   0.89795   -0.40193   0.17991   0.07913   0.89795   -0.40193   0.17991   102.08130
1536   0.07924   0.89834   -0.40114   0.18006   0.07924   0.89834   -0.40114   0.18006   101.99585
1537   0.07922   0.89779   -0.40236   0.17972   0.07922   0.89779   -0.40236   0.17972   101.94092
1538   0.07921   0.89767   -0.40257   0.18043   0.07921   0.89767   -0.40257   0.18043   101.99890
1539   0.07916   0.89758   -0.40263   0.17991   0.07916   0.89758   -0.40263   0.17991   102.10266
1540   0.07924   0.89746   -0.40233   0.18174   0.07924   0.89746   -0.40233   0.18174   102.02026
1541   0.07929   0.89746   -0.40223   0.18152   0.07929   0.89746   -0.40223   0.18152   101.93787
1542   0.07920   0.89776   -0.40208   0.18061   0.07920   0.89776   -0.40208   0.18061   102.03247
1543   0.07921   0.89819   -0.40211   0.17887   0.07921   0.89819   -0.40211   0.17887   102.07825
1544   0.07929   0.89703   -0.40294   0.18207   0.07929   0.89703   -0.40294   0.18207   101.97449
1545   0.07928   0.89758   -0.40187   0.18210   0.07928   0.89758   -0.40187   0.18210   101.96228
1546   0.07922   0.89810   -0.40135   0.18043   0.07922   0.89810   -0.40135   0.18043   102.02026
1547   0.07928   0.89779   -0.40172   0.18143   0.07928   0.89779   -0.40172   0.18143   102.04163
1548   0.07928   0.89773   -0.40083   0.18342   0.07928   0.89773   -0.40083   0.18342   101.93787
1549   0.07912   0.89795   -0.40248   0.17890   0.07912   0.89795   -0.40248   0.17890   101.96533
1550   0.07901   0.89773   -0.40242   0.17969   0.07901   0.89773   -0.40242   0.17969   102.02637
1551   0.07918   0.89746   -0.40300   0.18006   0.07918   0.89746   -0.40300   0.18006   102.02332
1552   0.07934   0.89785   -0.40150   0.18149   0.07934   0.89785   -0.40150   0.18149   101.95923
1553   0.07926   0.89770   -0.40266   0.17966   0.07926   0.89770   -0.40266   0.17966   102.00806
1554   0.07914   0.89715   -0.40309   0.18146   0.07914   0.89715   -0.40309   0.18146   102.06909
1555   0.07919   0.89737   -0.40254   0.18140   0.07919   0.89737   -0.40254   0.18140   101.98669
1556   0.07926   0.89755   -0.40229   0.18079   0.07926   0.89755   -0.40229   0.18079   101.98669
1557   0.07923   0.89703   -0.40333   0.18152   0.07923   0.89703   -0.40333   0.18152   102.02026
1558   0.07922   0.89697   -0.40385   0.18021   0.07922   0.89697   -0.40385   0.18021   102.03247
1559   0.07924   0.89740   -0.40269   0.18085   0.07924   0.89740   -0.40269   0.18085   101.96228
1560   0.07917   0.89740   -0.40287   0.18043   0.07917   0.89740   -0.40287   0.18043   102.04468
1561   0.07916   0.89727   -0.40358   0.17972   0.07916   0.89727   -0.40358   0.17972   102.03552
1562   0.07913   0.89764   -0.40239   0.18058   0.07913   0.89764   -0.40239   0.18058   101.96533
1563   0.07931   0.89749   -0.40233   0.18079   0.07931   0.89749   -0.40233   0.18079   101.99585
1564   0.07925   0.89727   -0.40358   0.17982   0.07925   0.89727   -0.40358   0.17982   102.04468
1565   0.07891   0.89700   -0.40394   0.18039   0.07891   0.89700   -0.40394   0.18039   102.06299
1566   0.07909   0.89712   -0.40355   0.18049   0.07909   0.89712   -0.40355   0.18049   101.96533
1567   0.07929   0.89721   -0.40312   0.18094   0.07929   0.89721   -0.40312   0.18094   102.00806
1568   0.07913   0.89749   -0.40278   0.18012   0.07913   0.89749   -0.40278   0.18012   102.08130
1569   0.07908   0.89749   -0.40263   0.18061   0.07908   0.89749   -0.40263   0.18061   101.97754
1570   0.07923   0.89740   -0.40275   0.18085   0.07923   0.89740   -0.40275   0.18085   101.91650
1571   0.07921   0.89746   -0.40254   0.18094   0.07921   0.89746   -0.40254   0.18094   102.03247
1572   0.07913   0.89721   -0.40339   0.18033   0.07913   0.89721   -0.40339   0.18033   102.10571
1573   0.07923   0.89669   -0.40410   0.18104   0.07923   0.89669   -0.40410   0.18104   102.00806
1574   0.07922   0.89682   -0.40422   0.18015   0.07922   0.89682   -0.40422   0.18015   101.97449
1575   0.07913   0.89746   -0.40321   0.17982   0.07913   0.89746   -0.40321   0.17982   102.04773
1576   0.07903   0.89715   -0.40358   0.18049   0.07903   0.89715   -0.40358   0.18049   102.09656
1577   0.07919   0.89706   -0.40385   0.17997   0.07919   0.89706   -0.40385   0.17997   101.96533
1578   0.07914   0.89715   -0.40297   0.18143   0.07914   0.89715   -0.40297   0.18143   102.02332
1579   0.07909   0.89715   -0.40410   0.17896   0.07909   0.89715   -0.40410   0.17896   102.09351
1580   0.07913   0.89724   -0.40324   0.18085   0.07913   0.89724   -0.40324   0.18085   102.04773
1581   0.07924   0.89746   -0.40294   0.18021   0.07924   0.89746   -0.40294   0.18021   101.99585
1582   0.07920   0.89746   -0.40284   0.17991   0.07920   0.89746   -0.40284   0.17991   101.99890
1583   0.07914   0.89718   -0.40324   0.18116   0.07914   0.89718   -0.40324   0.18116   102.06909
1584   0.07923   0.89700   -0.40358   0.18116   0.07923   0.89700   -0.40358   0.18116   102.02026
1585   0.07926   0.89865   -0.40031   0.18027   0.07926   0.89865   -0.40031   0.18027   101.92871
1586   0.07925   0.89712   -0.40342   0.18079   0.07925   0.89712   -0.40342   0.18079   102.00806
1587   0.07922   0.89740   -0.40342   0.17905   0.07922   0.89740   -0.40342   0.17905   102.02026
1588   0.07924   0.89749   -0.40275   0.18024   0.07924   0.89749   -0.40275   0.18024   101.97449
1589   0.07913   0.89706   -0.40312   0.18122   0.07913   0.89706   -0.40312   0.18122   102.03552
1590   0.07910   0.89691   -0.40419   0.18006   0.07910   0.89691   -0.40419   0.18006   102.05994
1591   0.07915   0.89688   -0.40397   0.18079   0.07915   0.89688   -0.40397   0.18079   101.99890
1592   0.07919   0.89679   -0.40410   0.18107   0.07919   0.89679   -0.40410   0.18107   101.96533
1593   0.07912   0.89688   -0.40400   0.18055   0.07912   0.89688   -0.40400   0.18055   102.05994
1594   0.07913   0.89700   -0.40349   0.18082   0.07913   0.89700   -0.40349   0.18082   102.05688
1595   0.07923   0.89734   -0.40254   0.18210   0.07923   0.89734   -0.40254   0.18210   101.96228
1596   0.07925   0.89663   -0.40376   0.18220   0.07925   0.89663   -0.40376   0.18220   101.99585
1597   0.07918   0.89749   -0.40257   0.18094   0.07918   0.89749   -0.40257   0.18094   102.02332
1598   0.07922   0.89715   -0.40306   0.18137   0.07922   0.89715   -0.40306   0.18137   102.04468
1599   0.07926   0.89712   -0.40220   0.18323   0.07926   0.89712   -0.40220   0.18323   101.93787
1600   0.07928   0.89694   -0.40391   0.18082   0.07928   0.89694   -0.40391   0.18082   102.00806
1601   0.07919   0.89712   -0.40339   0.18085   0.07919   0.89712   -0.40339   0.18085   102.07825
1602   0.07918   0.89691   -0.40336   0.18159   0.07918   0.89691   -0.40336   0.18159   102.03247
1603   0.07921   0.89731   -0.40297   0.18061   0.07921   0.89731   -0.40297   0.18061   101.88293
1604   0.07912   0.89676   -0.40434   0.18088   0.07912   0.89676   -0.40434   0.18088   102.02332
1605   0.07910   0.89651   -0.40416   0.18152   0.07910   0.89651   -0.40416   0.18152   102.11792
1606   0.07915   0.89709   -0.40269   0.18216   0.07915   0.89709   -0.40269   0.18216   102.01111
1607   0.07923   0.89688   -0.40321   0.18201   0.07923   0.89688   -0.40321   0.18201   101.96228
1608   0.07918   0.89709   -0.40266   0.18210   0.07918   0.89709   -0.40266   0.18210   102.01111
1609   0.07916   0.89731   -0.40275   0.18119   0.07916   0.89731   -0.40275   0.18119   102.06909
1610   0.07922   0.89706   -0.40263   0.18274   0.07922   0.89706   -0.40263   0.18274   101.97449
1611   0.07927   0.89657   -0.40394   0.18238   0.07927   0.89657   -0.40394   0.18238   102.00806
1612   0.07919   0.89703   -0.40321   0.18149   0.07919   0.89703   -0.40321   0.18149   102.03247
1613   0.07919   0.89718   -0.40266   0.18183   0.07919   0.89718   -0.40266   0.18183   102.06909
1614   0.07924   0.89685   -0.40300   0.18262   0.07924   0.89685   -0.40300   0.18262   102.00806
1615   0.07922   0.89721   -0.40321   0.18082   0.07922   0.89721   -0.40321   0.18082   101.99890
1616   0.07914   0.89703   -0.40339   0.18122   0.07914   0.89703   -0.40339   0.18122   102.08130
1617   0.07911   0.89706   -0.40297   0.18201   0.07911   0.89706   -0.40297   0.18201   102.00195
1618   0.07915   0.89673   -0.40400   0.18122   0.07915   0.89673   -0.40400   0.18122   101.99890
1619   0.07914   0.89700   -0.40352   0.18116   0.07914   0.89700   -0.40352   0.18116   101.99890
1620   0.07915   0.89737   -0.40257   0.18174   0.07915   0.89737   -0.40257   0.18174   101.99890
1621   0.07921   0.89706   -0.40309   0.18162   0.07921   0.89706   -0.40309   0.18162   101.96228
1622   0.07922   0.89743   -0.40263   0.18128   0.07922   0.89743   -0.40263   0.18128   101.99890
1623   0.07919   0.89743   -0.40297   0.18046   0.07919   0.89743   -0.40297   0.18046   102.04468
1624   0.07922   0.89697   -0.40361   0.18149   0.07922   0.89697   -0.40361   0.18149   102.00806
1625   0.07927   0.89673   -0.40327   0.18265   0.07927   0.89673   -0.40327   0.18265   101.99585
1626   0.07920   0.89657   -0.40468   0.18058   0.07920   0.89657   -0.40468   0.18058   102.07825
1627   0.07919   0.89712   -0.40303   0.18152   0.07919   0.89712   -0.40303   0.18152   102.07825
1628   0.07930   0.89697   -0.40333   0.18198   0.07930   0.89697   -0.40333   0.18198   101.98364
1629   0.07934   0.89657   -0.40425   0.18140   0.07934   0.89657   -0.40425   0.18140   101.99585
1630   0.07915   0.89709   -0.40349   0.18116   0.07915   0.89709   -0.40349   0.18116   102.06909
1631   0.07902   0.89721   -0.40303   0.18134   0.07902   0.89721   -0.40303   0.18134   102.05994
1632   0.07923   0.89715   -0.40223   0.18284   0.07923   0.89715   -0.40223   0.18284   101.94092
1633   0.07923   0.89676   -0.40388   0.18168   0.07923   0.89676   -0.40388   0.18168   101.96228
1634   0.07915   0.89727   -0.40300   0.18113   0.07915   0.89727   -0.40300   0.18113   102.03552
1635   0.07914   0.89718   -0.40294   0.18162   0.07914   0.89718   -0.40294   0.18162   102.04468
1636   0.07923   0.89694   -0.40315   0.18201   0.07923   0.89694   -0.40315   0.18201   101.97449
1637   0.07923   0.89694   -0.40330   0.18177   0.07923   0.89694   -0.40330   0.18177   101.98669
1638   0.07914   0.89694   -0.40345   0.18110   0.07914   0.89694   -0.40345   0.18110   102.11487
1639   0.07922   0.89660   -0.40397   0.18210   0.07922   0.89660   -0.40397   0.18210   102.04468
1640   0.07928   0.89639   -0.40419   0.18271   0.07928   0.89639   -0.40419   0.18271   101.95007
1641   0.07926   0.89636   -0.40382   0.18339   0.07926   0.89636   -0.40382   0.18339   102.02026
1642   0.07915   0.89691   -0.40315   0.18201   0.07915   0.89691   -0.40315   0.18201   102.08130
1643   0.07920   0.89682   -0.40333   0.18229   0.07920   0.89682   -0.40333   0.18229   101.97449
1644   0.07917   0.89660   -0.40324   0.18320   0.07917   0.89660   -0.40324   0.18320   101.97754
1645   0.07912   0.89697   -0.40376   0.18058   0.07912   0.89697   -0.40376   0.18058   102.04773
1646   0.07911   0.89740   -0.40220   0.18216   0.07911   0.89740   -0.40220   0.18216   102.04773
1647   0.07895   0.89724   -0.40248   0.18180   0.07895   0.89724   -0.40248   0.18180   102.00500
1648   0.07897   0.89721   -0.40278   0.18177   0.07897   0.89721   -0.40278   0.18177   102.00500
1649   0.07918   0.89715   -0.40269   0.18216   0.07918   0.89715   -0.40269   0.18216   102.04468
1650   0.07922   0.89727   -0.40220   0.18271   0.07922   0.89727   -0.40220   0.18271   101.99890
1651   0.07914   0.89682   -0.40333   0.18189   0.07914   0.89682   -0.40333   0.18189   102.01111
1652   0.07915   0.89743   -0.40199   0.18216   0.07915   0.89743   -0.40199   0.18216   101.99890
1653   0.07922   0.89761   -0.40172   0.18177   0.07922   0.89761   -0.40172   0.18177   101.99890
1654   0.07927   0.89731   -0.40181   0.18351   0.07927   0.89731   -0.40181   0.18351   101.95007
1655   0.07921   0.89685   -0.40303   0.18281   0.07921   0.89685   -0.40303   0.18281   102.02026
1656   0.07913   0.89740   -0.40254   0.18134   0.07913   0.89740   -0.40254   0.18134   102.04773
1657   0.07919   0.89773   -0.40181   0.18155   0.07919   0.89773   -0.40181   0.18155   101.98669
1658   0.07917   0.89724   -0.40211   0.18259   0.07917   0.89724   -0.40211   0.18259   101.91956
1659   0.07916   0.89755   -0.40223   0.18088   0.07916   0.89755   -0.40223   0.18088   102.01111
1660   0.07912   0.89703   -0.40306   0.18186   0.07912   0.89703   -0.40306   0.18186   102.06909
1661   0.07914   0.89715   -0.40248   0.18235   0.07914   0.89715   -0.40248   0.18235   101.97754
1662   0.07923   0.89764   -0.40104   0.18326   0.07923   0.89764   -0.40104   0.18326   101.89209
1663   0.07922   0.89688   -0.40239   0.18366   0.07922   0.89688   -0.40239   0.18366   102.06604
1664   0.07922   0.89669   -0.40303   0.18323   0.07922   0.89669   -0.40303   0.18323   102.11487
1665   0.07927   0.89651   -0.40333   0.18348   0.07927   0.89651   -0.40333   0.18348   101.97449
1666   0.07929   0.89688   -0.40278   0.18284   0.07929   0.89688   -0.40278   0.18284   101.95007
1667   0.07925   0.89764   -0.40211   0.18134   0.07925   0.89764   -0.40211   0.18134   102.03247
1668   0.07926   0.89792   -0.40114   0.18201   0.07926   0.89792   -0.40114   0.18201   101.99585
1669   0.07932   0.89782   -0.40071   0.18342   0.07932   0.89782   -0.40071   0.18342   101.91345
1670   0.07924   0.89764   -0.40138   0.18308   0.07924   0.89764   -0.40138   0.18308   101.90430
1671   0.07916   0.89724   -0.40208   0.18290   0.07916   0.89724   -0.40208   0.18290   102.04468
1672   0.07911   0.89737   -0.40098   0.18455   0.07911   0.89737   -0.40098   0.18455   102.00195
1673   0.07921   0.89740   -0.40165   0.18326   0.07921   0.89740   -0.40165   0.18326   101.92871
1674   0.07918   0.89749   -0.40229   0.18149   0.07918   0.89749   -0.40229   0.18149   101.97449
1675   0.07911   0.89712   -0.40315   0.18143   0.07911   0.89712   -0.40315   0.18143   102.05994
1676   0.07920   0.89731   -0.40193   0.18262   0.07920   0.89731   -0.40193   0.18262   101.97449
1677   0.07922   0.89734   -0.40187   0.18293   0.07922   0.89734   -0.40187   0.18293   101.95007
1678   0.07923   0.89767   -0.40196   0.18168   0.07923   0.89767   -0.40196   0.18168   101.99890
1679   0.07920   0.89746   -0.40223   0.18171   0.07920   0.89746   -0.40223   0.18171   102.02026
1680   0.07924   0.89715   -0.40245   0.18308   0.07924   0.89715   -0.40245   0.18308   101.99585
1681   0.07922   0.89758   -0.40208   0.18186   0.07922   0.89758   -0.40208   0.18186   101.98669
1682   0.07917   0.89761   -0.40120   0.18305   0.07917   0.89761   -0.40120   0.18305   102.03247
1683   0.07923   0.89749   -0.40220   0.18131   0.07923   0.89749   -0.40220   0.18131   101.99890
1684   0.07921   0.89740   -0.40178   0.18351   0.07921   0.89740   -0.40178   0.18351   101.96228
1685   0.07913   0.89807   -0.40080   0.18189   0.07913   0.89807   -0.40080   0.18189   101.98975
1686   0.07907   0.89779   -0.40110   0.18271   0.07907   0.89779   -0.40110   0.18271   102.01416
1687   0.07922   0.89764   -0.40141   0.18284   0.07922   0.89764   -0.40141   0.18284   101.90430
1688   0.07918   0.89789   -0.40138   0.18113   0.07918   0.89789   -0.40138   0.18113   101.96533
1689   0.07913   0.89779   -0.40153   0.18192   0.07913   0.89779   -0.40153   0.18192   102.04773
1690   0.07915   0.89767   -0.40138   0.18210   0.07915   0.89767   -0.40138   0.18210   102.03552
1691   0.07922   0.89785   -0.40059   0.18351   0.07922   0.89785   -0.40059   0.18351   101.94092
1692   0.07919   0.89700   -0.40312   0.18174   0.07919   0.89700   -0.40312   0.18174   102.01111
1693   0.07913   0.89755   -0.40126   0.18290   0.07913   0.89755   -0.40126   0.18290   102.08130
1694   0.07923   0.89782   -0.40114   0.18183   0.07923   0.89782   -0.40114   0.18183   101.98669
1695   0.07927   0.89743   -0.40129   0.18345   0.07927   0.89743   -0.40129   0.18345   101.87988
1696   0.07921   0.89731   -0.40199   0.18271   0.07921   0.89731   -0.40199   0.18271   102.03247
1697   0.07913   0.89785   -0.40092   0.18262   0.07913   0.89785   -0.40092   0.18262   102.08130
1698   0.07922   0.89850   -0.39961   0.18259   0.07922   0.89850   -0.39961   0.18259   101.91650
1699   0.07921   0.89843   -0.40013   0.18177   0.07921   0.89843   -0.40013   0.18177   101.88293
1700   0.07908   0.89816   -0.40071   0.18125   0.07908   0.89816   -0.40071   0.18125   102.05994
1701   0.07913   0.89773   -0.40126   0.18265   0.07913   0.89773   -0.40126   0.18265   102.04773
1702   0.07916   0.89825   -0.39940   0.18421   0.07916   0.89825   -0.39940   0.18421   101.90735
1703   0.07921   0.89776   -0.40074   0.18372   0.07921   0.89776   -0.40074   0.18372   101.90430
1704   0.07915   0.89764   -0.40101   0.18293   0.07915   0.89764   -0.40101   0.18293   102.03552
1705   0.07914   0.89785   -0.40062   0.18329   0.07914   0.89785   -0.40062   0.18329   102.02332
1706   0.07922   0.89724   -0.40229   0.18278   0.07922   0.89724   -0.40229   0.18278   101.96228
1707   0.07924   0.89773   -0.40107   0.18259   0.07924   0.89773   -0.40107   0.18259   101.96228
1708   0.07921   0.89776   -0.40114   0.18256   0.07921   0.89776   -0.40114   0.18256   102.02026
1709   0.07919   0.89807   -0.40013   0.18357   0.07919   0.89807   -0.40013   0.18357   101.99890
1710   0.07925   0.89767   -0.40104   0.18311   0.07925   0.89767   -0.40104   0.18311   101.98669
1711   0.07922   0.89850   -0.39991   0.18186   0.07922   0.89850   -0.39991   0.18186   101.97449
1712   0.07918   0.89825   -0.40037   0.18198   0.07918   0.89825   -0.40037   0.18198   101.98669
1713   0.07919   0.89843   -0.39970   0.18271   0.07919   0.89843   -0.39970   0.18271   101.91650
1714   0.07916   0.89807   -0.40031   0.18265   0.07916   0.89807   -0.40031   0.18265   101.94092
1715   0.07913   0.89792   -0.40110   0.18177   0.07913   0.89792   -0.40110   0.18177   102.03552
1716   0.07920   0.89801   -0.40046   0.18278   0.07920   0.89801   -0.40046   0.18278   101.96228
1717   0.07926   0.89834   -0.39940   0.18351   0.07926   0.89834   -0.39940   0.18351   101.89209
1718   0.07917   0.89804   -0.40150   0.18073   0.07917   0.89804   -0.40150   0.18073   102.02332
1719   0.07919   0.89779   -0.40083   0.18311   0.07919   0.89779   -0.40083   0.18311   102.01111
1720   0.07927   0.89840   -0.39967   0.18293   0.07927   0.89840   -0.39967   0.18293   101.87988
1721   0.07928   0.89819   -0.39982   0.18329   0.07928   0.89819   -0.39982   0.18329   101.92566
1722   0.07923   0.89782   -0.40150   0.18155   0.07923   0.89782   -0.40150   0.18155   101.97449
1723   0.07920   0.89746   -0.40187   0.18192   0.07920   0.89746   -0.40187   0.18192   102.02026
1724   0.07931   0.89804   -0.40001   0.18363   0.07931   0.89804   -0.40001   0.18363   101.90430
1725   0.07923   0.89773   -0.40049   0.18412   0.07923   0.89773   -0.40049   0.18412   101.96228
1726   0.07914   0.89804   -0.40071   0.18216   0.07914   0.89804   -0.40071   0.18216   102.06909
1727   0.07905   0.89862   -0.39943   0.18226   0.07905   0.89862   -0.39943   0.18226   102.01416
1728   0.07903   0.89850   -0.39924   0.18284   0.07903   0.89850   -0.39924   0.18284   101.86462
1729   0.07910   0.89840   -0.40007   0.18149   0.07910   0.89840   -0.40007   0.18149   101.93176
1730   0.07919   0.89828   -0.40052   0.18137   0.07919   0.89828   -0.40052   0.18137   101.99890
1731   0.07924   0.89837   -0.39995   0.18247   0.07924   0.89837   -0.39995   0.18247   101.98669
1732   0.07928   0.89846   -0.39909   0.18342   0.07928   0.89846   -0.39909   0.18342   101.87988
1733   0.07922   0.89807   -0.40071   0.18226   0.07922   0.89807   -0.40071   0.18226   101.95007
1734   0.07917   0.89764   -0.40110   0.18354   0.07917   0.89764   -0.40110   0.18354   102.03247
1735   0.07934   0.89822   -0.39991   0.18320   0.07934   0.89822   -0.39991   0.18320   101.91345
1736   0.07931   0.89807   -0.40031   0.18299   0.07931   0.89807   -0.40031   0.18299   101.91345
1737   0.07927   0.89825   -0.40010   0.18259   0.07927   0.89825   -0.40010   0.18259   101.98364
1738   0.07923   0.89856   -0.39909   0.18305   0.07923   0.89856   -0.39909   0.18305   101.99890
1739   0.07928   0.89868   -0.39827   0.18430   0.07928   0.89868   -0.39827   0.18430   101.91650
1740   0.07922   0.89831   -0.39998   0.18238   0.07922   0.89831   -0.39998   0.18238   101.96228
1741   0.07912   0.89825   -0.40010   0.18253   0.07912   0.89825   -0.40010   0.18253   101.97754
1742   0.07920   0.89776   -0.40056   0.18339   0.07920   0.89776   -0.40056   0.18339   101.95313
1743   0.07919   0.89865   -0.39970   0.18183   0.07919   0.89865   -0.39970   0.18183   101.91650
1744   0.07921   0.89825   -0.40080   0.18082   0.07921   0.89825   -0.40080   0.18082   101.95313
1745   0.07921   0.89853   -0.39967   0.18207   0.07921   0.89853   -0.39967   0.18207   101.99890
1746   0.07927   0.89789   -0.40065   0.18329   0.07927   0.89789   -0.40065   0.18329   101.95007
1747   0.07933   0.89792   -0.40004   0.18394   0.07933   0.89792   -0.40004   0.18394   101.95007
1748   0.07933   0.89770   -0.40101   0.18311   0.07933   0.89770   -0.40101   0.18311   102.04163
1749   0.07920   0.89837   -0.39970   0.18293   0.07920   0.89837   -0.39970   0.18293   101.96228
1750   0.07918   0.89846   -0.39943   0.18262   0.07918   0.89846   -0.39943   0.18262   101.87073
1751   0.07933   0.89843   -0.40001   0.18186   0.07933   0.89843   -0.40001   0.18186   101.97144
1752   0.07931   0.89843   -0.39946   0.18268   0.07931   0.89843   -0.39946   0.18268   102.02026
1753   0.07930   0.89850   -0.39918   0.18326   0.07930   0.89850   -0.39918   0.18326   101.91650
1754   0.07918   0.89856   -0.39924   0.18302   0.07918   0.89856   -0.39924   0.18302   101.90735
1755   0.07910   0.89871   -0.39915   0.18192   0.07910   0.89871   -0.39915   0.18192   102.01111
1756   0.07916   0.89837   -0.39988   0.18232   0.07916   0.89837   -0.39988   0.18232   102.03552
1757   0.07922   0.89822   -0.39973   0.18317   0.07922   0.89822   -0.39973   0.18317   101.91650
1758   0.07923   0.89846   -0.39930   0.18351   0.07923   0.89846   -0.39930   0.18351   101.87073
1759   0.07916   0.89846   -0.39998   0.18177   0.07916   0.89846   -0.39998   0.18177   102.01111
1760   0.07919   0.89828   -0.40025   0.18204   0.07919   0.89828   -0.40025   0.18204   102.05688
1761   0.07928   0.89834   -0.39888   0.18415   0.07928   0.89834   -0.39888   0.18415   101.87073
1762   0.07929   0.89804   -0.40071   0.18271   0.07929   0.89804   -0.40071   0.18271   101.91650
1763   0.07934   0.89853   -0.39964   0.18235   0.07934   0.89853   -0.39964   0.18235   102.01721
1764   0.07927   0.89859   -0.39943   0.18207   0.07927   0.89859   -0.39943   0.18207   101.98364
1765   0.07913   0.89883   -0.39909   0.18155   0.07913   0.89883   -0.39909   0.18155   101.89514
1766   0.07922   0.89853   -0.39961   0.18177   0.07922   0.89853   -0.39961   0.18177   101.92871
1767   0.07922   0.89883   -0.39882   0.18241   0.07922   0.89883   -0.39882   0.18241   101.99890
1768   0.07913   0.89846   -0.39976   0.18220   0.07913   0.89846   -0.39976   0.18220   101.91956
1769   0.07911   0.89779   -0.40083   0.18293   0.07911   0.89779   -0.40083   0.18293   101.95313
1770   0.07914   0.89804   -0.40104   0.18140   0.07914   0.89804   -0.40104   0.18140   101.97754
1771   0.07914   0.89862   -0.39860   0.18418   0.07914   0.89862   -0.39860   0.18418   101.96533
1772   0.07922   0.89846   -0.39964   0.18226   0.07922   0.89846   -0.39964   0.18226   101.92871
1773   0.07920   0.89792   -0.40110   0.18192   0.07920   0.89792   -0.40110   0.18192   101.95313
1774   0.07922   0.89795   -0.40141   0.18091   0.07922   0.89795   -0.40141   0.18091   101.99890
1775   0.07922   0.89868   -0.39875   0.18293   0.07922   0.89868   -0.39875   0.18293   101.91650
1776   0.07926   0.89911   -0.39930   0.18036   0.07926   0.89911   -0.39930   0.18036   101.90430
1777   0.07919   0.89853   -0.39949   0.18210   0.07919   0.89853   -0.39949   0.18210   102.04468
1778   0.07920   0.89804   -0.40068   0.18256   0.07920   0.89804   -0.40068   0.18256   102.03247
1779   0.07927   0.89813   -0.40025   0.18308   0.07927   0.89813   -0.40025   0.18308   101.92871
1780   0.07921   0.89807   -0.40034   0.18290   0.07921   0.89807   -0.40034   0.18290   101.97449
1781   0.07916   0.89856   -0.40031   0.18070   0.07916   0.89856   -0.40031   0.18070   101.98669
1782   0.07911   0.89850   -0.39985   0.18201   0.07911   0.89850   -0.39985   0.18201   101.98975
1783   0.07921   0.89798   -0.39998   0.18400   0.07921   0.89798   -0.39998   0.18400   101.90430
1784   0.07919   0.89868   -0.39927   0.18195   0.07919   0.89868   -0.39927   0.18195   101.94092
1785   0.07914   0.89837   -0.40059   0.18085   0.07914   0.89837   -0.40059   0.18085   102.05688
1786   0.07920   0.89822   -0.40043   0.18146   0.07920   0.89822   -0.40043   0.18146   101.96228
1787   0.07927   0.89828   -0.39961   0.18320   0.07927   0.89828   -0.39961   0.18320   101.89209
1788   0.07925   0.89822   -0.40037   0.18192   0.07925   0.89822   -0.40037   0.18192   101.95007
1789   0.07918   0.89846   -0.39995   0.18180   0.07918   0.89846   -0.39995   0.18180   102.01111
1790   0.07926   0.89792   -0.40022   0.18455   0.07926   0.89792   -0.40022   0.18455   101.95007
1791   0.07933   0.89828   -0.39998   0.18204   0.07933   0.89828   -0.39998   0.18204   101.87988
1792   0.07927   0.89785   -0.40065   0.18329   0.07927   0.89785   -0.40065   0.18329   101.99585
1793   0.07920   0.89834   -0.39964   0.18281   0.07920   0.89834   -0.39964   0.18281   102.06909
1794   0.07923   0.89828   -0.39964   0.18339   0.07923   0.89828   -0.39964   0.18339   101.90430
1795   0.07920   0.89846   -0.39998   0.18162   0.07920   0.89846   -0.39998   0.18162   101.96228
1796   0.07908   0.89834   -0.40016   0.18223   0.07908   0.89834   -0.40016   0.18223   102.03552
1797   0.07920   0.89850   -0.40028   0.18125   0.07920   0.89850   -0.40028   0.18125   101.97449
1798   0.07924   0.89862   -0.39991   0.18119   0.07924   0.89862   -0.39991   0.18119   101.89209
1799   0.07921   0.89840   -0.40040   0.18085   0.07921   0.89840   -0.40040   0.18085   101.98669
1800   0.07919   0.89792   -0.40089   0.18192   0.07919   0.89792   -0.40089   0.18192   102.02332
1801   0.07923   0.89819   -0.40022   0.18229   0.07923   0.89819   -0.40022   0.18229   101.96228
1802   0.07927   0.89804   -0.40086   0.18195   0.07927   0.89804   -0.40086   0.18195   101.96228
1803   0.07922   0.89825   -0.40107   0.18070   0.07922   0.89825   -0.40107   0.18070   101.97449
1804   0.07924   0.89834   -0.39982   0.18268   0.07924   0.89834   -0.39982   0.18268   101.99585
1805   0.07929   0.89801   -0.40034   0.18296   0.07929   0.89801   -0.40034   0.18296   101.96228
1806   0.07928   0.89795   -0.40114   0.18201   0.07928   0.89795   -0.40114   0.18201   101.97449
1807   0.07921   0.89822   -0.40037   0.18213   0.07921   0.89822   -0.40037   0.18213   101.99890
1808   0.07925   0.89828   -0.40031   0.18226   0.07925   0.89828   -0.40031   0.18226   101.90430
1809   0.07919   0.89908   -0.39818   0.18271   0.07919   0.89908   -0.39818   0.18271   101.89514
1810   0.07915   0.89801   -0.40080   0.18223   0.07915   0.89801   -0.40080   0.18223   102.01111
1811   0.07919   0.89865   -0.39952   0.18149   0.07919   0.89865   -0.39952   0.18149   101.95313
1812   0.07922   0.89843   -0.39973   0.18262   0.07922   0.89843   -0.39973   0.18262   101.89514
1813   0.07923   0.89822   -0.40025   0.18204   0.07923   0.89822   -0.40025   0.18204   101.92871
1814   0.07918   0.89853   -0.39995   0.18180   0.07918   0.89853   -0.39995   0.18180   101.96533
1815   0.07922   0.89862   -0.40004   0.18064   0.07922   0.89862   -0.40004   0.18064   101.96228
1816   0.07929   0.89831   -0.40004   0.18256   0.07929   0.89831   -0.40004   0.18256   101.92566
1817   0.07924   0.89840   -0.39998   0.18207   0.07924   0.89840   -0.39998   0.18207   101.95007
1818   0.07922   0.89813   -0.40092   0.18064   0.07922   0.89813   -0.40092   0.18064   102.07825
1819   0.07921   0.89874   -0.39915   0.18192   0.07921   0.89874   -0.39915   0.18192   101.98669
1820   0.07933   0.89837   -0.39964   0.18265   0.07933   0.89837   -0.39964   0.18265   101.90430
1821   0.07924   0.89920   -0.39830   0.18210   0.07924   0.89920   -0.39830   0.18210   101.92871
1822   0.07914   0.89825   -0.40071   0.18091   0.07914   0.89825   -0.40071   0.18091   102.08130
1823   0.07914   0.89840   -0.39982   0.18238   0.07914   0.89840   -0.39982   0.18238   101.94092
1824   0.07922   0.89801   -0.40083   0.18198   0.07922   0.89801   -0.40083   0.18198   101.94092
1825   0.07921   0.89840   -0.40080   0.18067   0.07921   0.89840   -0.40080   0.18067   101.95313
1826   0.07912   0.89843   -0.39933   0.18360   0.07912   0.89843   -0.39933   0.18360   102.00195
1827   0.07919   0.89843   -0.39970   0.18271   0.07919   0.89843   -0.39970   0.18271   101.91650
1828   0.07928   0.89828   -0.40040   0.18210   0.07928   0.89828   -0.40040   0.18210   101.95007
1829   0.07931   0.89825   -0.40034   0.18174   0.07931   0.89825   -0.40034   0.18174   102.02942
1830   0.07926   0.89816   -0.40052   0.18201   0.07926   0.89816   -0.40052   0.18201   101.99585
1831   0.07924   0.89874   -0.39930   0.18207   0.07924   0.89874   -0.39930   0.18207   101.94092
1832   0.07924   0.89816   -0.40123   0.18012   0.07924   0.89816   -0.40123   0.18012   101.95007
1833   0.07924   0.89767   -0.40123   0.18281   0.07924   0.89767   -0.40123   0.18281   102.02026
1834   0.07929   0.89819   -0.40059   0.18113   0.07929   0.89819   -0.40059   0.18113   101.95007
1835   0.07925   0.89846   -0.40037   0.18049   0.07925   0.89846   -0.40037   0.18049   101.91650
1836   0.07909   0.89825   -0.40089   0.18039   0.07909   0.89825   -0.40089   0.18039   102.01416
1837   0.07913   0.89810   -0.40153   0.18015   0.07913   0.89810   -0.40153   0.18015   101.99890
1838   0.07924   0.89828   -0.39979   0.18314   0.07924   0.89828   -0.39979   0.18314   101.90430
1839   0.07915   0.89813   -0.40132   0.18067   0.07915   0.89813   -0.40132   0.18067   101.96533
1840   0.07914   0.89822   -0.40101   0.18015   0.07914   0.89822   -0.40101   0.18015   102.03552
1841   0.07921   0.89853   -0.40034   0.18076   0.07921   0.89853   -0.40034   0.18076   101.94092
1842   0.07931   0.89840   -0.39967   0.18226   0.07931   0.89840   -0.39967   0.18226   101.89209
1843   0.07923   0.89798   -0.40187   0.18000   0.07923   0.89798   -0.40187   0.18000   101.99890
1844   0.07919   0.89816   -0.40153   0.17951   0.07919   0.89816   -0.40153   0.17951   102.04468
1845   0.07928   0.89761   -0.40150   0.18268   0.07928   0.89761   -0.40150   0.18268   101.95007
1846   0.07929   0.89813   -0.40065   0.18168   0.07929   0.89813   -0.40065   0.18168   101.92566
1847   0.07899   0.89789   -0.40202   0.18046   0.07899   0.89789   -0.40202   0.18046   102.05078
1848   0.07901   0.89819   -0.40095   0.18097   0.07901   0.89819   -0.40095   0.18097   102.05078
1849   0.07928   0.89822   -0.40007   0.18290   0.07928   0.89822   -0.40007   0.18290   101.87988
1850   0.07923   0.89776   -0.40141   0.18195   0.07923   0.89776   -0.40141   0.18195   101.95007
1851   0.07900   0.89798   -0.40175   0.18027   0.07900   0.89798   -0.40175   0.18027   102.05078
1852   0.07909   0.89770   -0.40168   0.18177   0.07909   0.89770   -0.40168   0.18177   102.04773
1853   0.07920   0.89776   -0.40168   0.18113   0.07920   0.89776   -0.40168   0.18113   101.94092
1854   0.07922   0.89776   -0.40193   0.18082   0.07922   0.89776   -0.40193   0.18082   101.99890
1855   0.07909   0.89846   -0.40052   0.18052   0.07909   0.89846   -0.40052   0.18052   102.09351
1856   0.07914   0.89822   -0.40120   0.18039   0.07914   0.89822   -0.40120   0.18039   101.96533
1857   0.07922   0.89834   -0.40056   0.18107   0.07922   0.89834   -0.40056   0.18107   101.90430
1858   0.07924   0.89792   -0.40175   0.18036   0.07924   0.89792   -0.40175   0.18036   101.99585
1859   0.07921   0.89822   -0.40110   0.18036   0.07921   0.89822   -0.40110   0.18036   102.02026
1860   0.07923   0.89862   -0.39979   0.18143   0.07923   0.89862   -0.39979   0.18143   101.95007
1861   0.07929   0.89840   -0.40056   0.18049   0.07929   0.89840   -0.40056   0.18049   101.93787
1862   0.07921   0.89743   -0.40278   0.18067   0.07921   0.89743   -0.40278   0.18067   102.04468
1863   0.07924   0.89816   -0.40077   0.18152   0.07924   0.89816   -0.40077   0.18152   101.98669
1864   0.07922   0.89731   -0.40291   0.18128   0.07922   0.89731   -0.40291   0.18128   102.00806
1865   0.07918   0.89761   -0.40251   0.18070   0.07918   0.89761   -0.40251   0.18070   101.97449
1866   0.07922   0.89770   -0.40287   0.17951   0.07922   0.89770   -0.40287   0.17951   101.99890
1867   0.07925   0.89810   -0.40086   0.18131   0.07925   0.89810   -0.40086   0.18131   101.97449
1868   0.07930   0.89804   -0.40123   0.18088   0.07930   0.89804   -0.40123   0.18088   101.97144
1869   0.07926   0.89789   -0.40178   0.18033   0.07926   0.89789   -0.40178   0.18033   101.99585
1870   0.07921   0.89746   -0.40251   0.18091   0.07921   0.89746   -0.40251   0.18091   102.06909
1871   0.07932   0.89825   -0.40028   0.18241   0.07932   0.89825   -0.40028   0.18241   101.90430
1872   0.07930   0.89749   -0.40266   0.18012   0.07930   0.89749   -0.40266   0.18012   102.00806
1873   0.07922   0.89770   -0.40245   0.17994   0.07922   0.89770   -0.40245   0.17994   102.07825
1874   0.07923   0.89749   -0.40220   0.18131   0.07923   0.89749   -0.40220   0.18131   101.99890
1875   0.07934   0.89746   -0.40202   0.18183   0.07934   0.89746   -0.40202   0.18183   101.92566
1876   0.07925   0.89724   -0.40324   0.18061   0.07925   0.89724   -0.40324   0.18061   102.04468
1877   0.07915   0.89807   -0.40147   0.18027   0.07915   0.89807   -0.40147   0.18027   102.04468
1878   0.07913   0.89785   -0.40202   0.18049   0.07913   0.89785   -0.40202   0.18049   101.95313
1879   0.07922   0.89779   -0.40123   0.18226   0.07922   0.89779   -0.40123   0.18226   101.95313
1880   0.07916   0.89770   -0.40242   0.18009   0.07916   0.89770   -0.40242   0.18009   102.01111
1881   0.07914   0.89734   -0.40294   0.18073   0.07914   0.89734   -0.40294   0.18073   102.06909
1882   0.07924   0.89804   -0.40187   0.17969   0.07924   0.89804   -0.40187   0.17969   101.94092
1883   0.07927   0.89773   -0.40159   0.18131   0.07927   0.89773   -0.40159   0.18131   101.95007
1884   0.07921   0.89752   -0.40321   0.17927   0.07921   0.89752   -0.40321   0.17927   102.05688
1885   0.07915   0.89758   -0.40211   0.18137   0.07915   0.89758   -0.40211   0.18137   102.05688
1886   0.07928   0.89767   -0.40138   0.18259   0.07928   0.89767   -0.40138   0.18259   101.98364
1887   0.07928   0.89718   -0.40352   0.18024   0.07928   0.89718   -0.40352   0.18024   101.99585
1888   0.07924   0.89755   -0.40263   0.17972   0.07924   0.89755   -0.40263   0.17972   102.05383
1889   0.07918   0.89721   -0.40284   0.18134   0.07918   0.89721   -0.40284   0.18134   102.05688
1890   0.07922   0.89743   -0.40251   0.18101   0.07922   0.89743   -0.40251   0.18101   101.96228
1891   0.07920   0.89737   -0.40272   0.18094   0.07920   0.89737   -0.40272   0.18094   101.99890
1892   0.07911   0.89724   -0.40364   0.17985   0.07911   0.89724   -0.40364   0.17985   102.04773
1893   0.07917   0.89749   -0.40220   0.18174   0.07917   0.89749   -0.40220   0.18174   102.03247
1894   0.07921   0.89709   -0.40333   0.18101   0.07921   0.89709   -0.40333   0.18101   101.99890
1895   0.07917   0.89709   -0.40364   0.18012   0.07917   0.89709   -0.40364   0.18012   101.99890
1896   0.07919   0.89734   -0.40324   0.18027   0.07919   0.89734   -0.40324   0.18027   102.03247
1897   0.07925   0.89694   -0.40342   0.18189   0.07925   0.89694   -0.40342   0.18189   101.99585
1898   0.07922   0.89694   -0.40370   0.18076   0.07922   0.89694   -0.40370   0.18076   102.02026
1899   0.07919   0.89685   -0.40413   0.18030   0.07919   0.89685   -0.40413   0.18030   102.05688
1900   0.07925   0.89682   -0.40352   0.18216   0.07925   0.89682   -0.40352   0.18216   102.00806
1901   0.07927   0.89694   -0.40333   0.18213   0.07927   0.89694   -0.40333   0.18213   102.02026
1902   0.07922   0.89673   -0.40388   0.18143   0.07922   0.89673   -0.40388   0.18143   101.99890
1903   0.07918   0.89697   -0.40349   0.18116   0.07918   0.89697   -0.40349   0.18116   102.03247
1904   0.07926   0.89663   -0.40413   0.18171   0.07926   0.89663   -0.40413   0.18171   101.95007
1905   0.07917   0.89715   -0.40333   0.18122   0.07917   0.89715   -0.40333   0.18122   101.98669
1906   0.07907   0.89737   -0.40321   0.18021   0.07907   0.89737   -0.40321   0.18021   102.03552
1907   0.07912   0.89715   -0.40336   0.18058   0.07912   0.89715   -0.40336   0.18058   102.03552
1908   0.07921   0.89740   -0.40233   0.18229   0.07921   0.89740   -0.40233   0.18229   101.95313
1909   0.07922   0.89724   -0.40330   0.18046   0.07922   0.89724   -0.40330   0.18046   102.02026
1910   0.07913   0.89697   -0.40382   0.18058   0.07913   0.89697   -0.40382   0.18058   102.08130
1911   0.07918   0.89724   -0.40303   0.18085   0.07918   0.89724   -0.40303   0.18085   102.03247
1912   0.07926   0.89694   -0.40312   0.18183   0.07926   0.89694   -0.40312   0.18183   101.97449
1913   0.07921   0.89712   -0.40349   0.18076   0.07921   0.89712   -0.40349   0.18076   102.01111
1914   0.07917   0.89718   -0.40358   0.18009   0.07917   0.89718   -0.40358   0.18009   102.08130
1915   0.07924   0.89679   -0.40312   0.18311   0.07924   0.89679   -0.40312   0.18311   101.96228
1916   0.07928   0.89657   -0.40422   0.18210   0.07928   0.89657   -0.40422   0.18210   101.92566
1917   0.07922   0.89663   -0.40452   0.18061   0.07922   0.89663   -0.40452   0.18061   102.03247
1918   0.07913   0.89669   -0.40431   0.18064   0.07913   0.89669   -0.40431   0.18064   102.09351
1919   0.07918   0.89709   -0.40364   0.18018   0.07918   0.89709   -0.40364   0.18018   101.97449
1920   0.07916   0.89731   -0.40358   0.17942   0.07916   0.89731   -0.40358   0.17942   101.98669
1921   0.07916   0.89749   -0.40278   0.18043   0.07916   0.89749   -0.40278   0.18043   102.04468
1922   0.07913   0.89712   -0.40339   0.18070   0.07913   0.89712   -0.40339   0.18070   102.04773
1923   0.07922   0.89703   -0.40324   0.18113   0.07922   0.89703   -0.40324   0.18113   101.99890
1924   0.07923   0.89676   -0.40455   0.17991   0.07923   0.89676   -0.40455   0.17991   102.04468
1925   0.07920   0.89682   -0.40413   0.18036   0.07920   0.89682   -0.40413   0.18036   102.05688
1926   0.07922   0.89700   -0.40361   0.18119   0.07922   0.89700   -0.40361   0.18119   102.00806
1927   0.07924   0.89737   -0.40272   0.18110   0.07924   0.89737   -0.40272   0.18110   101.94092
1928   0.07904   0.89682   -0.40394   0.18155   0.07904   0.89682   -0.40394   0.18155   102.04773
1929   0.07910   0.89673   -0.40416   0.18128   0.07910   0.89673   -0.40416   0.18128   102.03552
1930   0.07931   0.89666   -0.40400   0.18189   0.07931   0.89666   -0.40400   0.18189   102.00806
1931   0.07932   0.89666   -0.40419   0.18131   0.07932   0.89666   -0.40419   0.18131   101.98364
1932   0.07917   0.89721   -0.40303   0.18116   0.07917   0.89721   -0.40303   0.18116   102.04468
1933   0.07908   0.89785   -0.40217   0.18012   0.07908   0.89785   -0.40217   0.18012   102.03552
1934   0.07922   0.89645   -0.40443   0.18174   0.07922   0.89645   -0.40443   0.18174   101.94092
1935   0.07922   0.89724   -0.40263   0.18186   0.07922   0.89724   -0.40263   0.18186   101.99890
1936   0.07921   0.89712   -0.40324   0.18097   0.07921   0.89712   -0.40324   0.18097   102.09045
1937   0.07924   0.89688   -0.40349   0.18192   0.07924   0.89688   -0.40349   0.18192   101.99585
1938   0.07927   0.89740   -0.40229   0.18146   0.07927   0.89740   -0.40229   0.18146   101.96228
1939   0.07924   0.89740   -0.40266   0.18094   0.07924   0.89740   -0.40266   0.18094   101.99585
1940   0.07917   0.89691   -0.40419   0.18000   0.07917   0.89691   -0.40419   0.18000   102.09045
1941   0.07930   0.89676   -0.40327   0.18265   0.07930   0.89676   -0.40327   0.18265   101.96228
1942   0.07930   0.89618   -0.40440   0.18274   0.07930   0.89618   -0.40440   0.18274   101.96228
1943   0.07922   0.89660   -0.40428   0.18180   0.07922   0.89660   -0.40428   0.18180   102.05688
1944   0.07921   0.89691   -0.40382   0.18134   0.07921   0.89691   -0.40382   0.18134   102.03247
1945   0.07928   0.89679   -0.40309   0.18293   0.07928   0.89679   -0.40309   0.18293   101.95007
1946   0.07923   0.89679   -0.40349   0.18177   0.07923   0.89679   -0.40349   0.18177   101.98669
1947   0.07917   0.89673   -0.40370   0.18177   0.07917   0.89673   -0.40370   0.18177   102.08130
1948   0.07928   0.89639   -0.40367   0.18339   0.07928   0.89639   -0.40367   0.18339   102.06604
1949   0.07922   0.89660   -0.40355   0.18326   0.07922   0.89660   -0.40355   0.18326   101.91650
1950   0.07904   0.89712   -0.40318   0.18128   0.07904   0.89712   -0.40318   0.18128   102.02637
1951   0.07914   0.89682   -0.40312   0.18256   0.07914   0.89682   -0.40312   0.18256   102.05688
1952   0.07931   0.89639   -0.40464   0.18189   0.07931   0.89639   -0.40464   0.18189   101.99585
1953   0.07933   0.89654   -0.40431   0.18165   0.07933   0.89654   -0.40431   0.18165   101.98364
1954   0.07920   0.89669   -0.40410   0.18146   0.07920   0.89669   -0.40410   0.18146   102.01111
1955   0.07914   0.89700   -0.40291   0.18226   0.07914   0.89700   -0.40291   0.18226   102.06909
1956   0.07931   0.89688   -0.40361   0.18189   0.07931   0.89688   -0.40361   0.18189   101.99585
1957   0.07928   0.89669   -0.40385   0.18171   0.07928   0.89669   -0.40385   0.18171   101.99585
1958   0.07922   0.89731   -0.40294   0.18061   0.07922   0.89731   -0.40294   0.18061   102.00806
1959   0.07918   0.89651   -0.40391   0.18244   0.07918   0.89651   -0.40391   0.18244   102.04468
1960   0.07919   0.89688   -0.40309   0.18213   0.07919   0.89688   -0.40309   0.18213   101.97449
1961   0.07915   0.89663   -0.40388   0.18201   0.07915   0.89663   -0.40388   0.18201   102.01111
1962   0.07917   0.89709   -0.40294   0.18186   0.07917   0.89709   -0.40294   0.18186   102.06909
1963   0.07929   0.89676   -0.40342   0.18229   0.07929   0.89676   -0.40342   0.18229   101.98364
1964   0.07930   0.89688   -0.40303   0.18320   0.07930   0.89688   -0.40303   0.18320   102.00806
1965   0.07902   0.89706   -0.40355   0.18058   0.07902   0.89706   -0.40355   0.18058   102.07214
1966   0.07903   0.89706   -0.40324   0.18128   0.07903   0.89706   -0.40324   0.18128   102.02637
1967   0.07933   0.89645   -0.40352   0.18348   0.07933   0.89645   -0.40352   0.18348   101.95923
1968   0.07931   0.89727   -0.40284   0.18091   0.07931   0.89727   -0.40284   0.18091   102.00806
1969   0.07908   0.89721   -0.40297   0.18165   0.07908   0.89721   -0.40297   0.18165   102.04773
1970   0.07913   0.89666   -0.40345   0.18305   0.07913   0.89666   -0.40345   0.18305   102.03552
1971   0.07933   0.89718   -0.40266   0.18207   0.07933   0.89718   -0.40266   0.18207   101.92566
1972   0.07922   0.89682   -0.40342   0.18168   0.07922   0.89682   -0.40342   0.18168   102.03247
1973   0.07912   0.89731   -0.40284   0.18131   0.07912   0.89731   -0.40284   0.18131   102.02332
1974   0.07916   0.89669   -0.40315   0.18293   0.07916   0.89669   -0.40315   0.18293   101.97754
1975   0.07920   0.89703   -0.40291   0.18278   0.07920   0.89703   -0.40291   0.18278   101.94092
1976   0.07913   0.89703   -0.40327   0.18174   0.07913   0.89703   -0.40327   0.18174   102.04773
1977   0.07911   0.89703   -0.40345   0.18131   0.07911   0.89703   -0.40345   0.18131   102.05994
1978   0.07922   0.89715   -0.40226   0.18305   0.07922   0.89715   -0.40226   0.18305   101.91650
1979   0.07922   0.89724   -0.40269   0.18180   0.07922   0.89724   -0.40269   0.18180   101.94092
1980   0.07914   0.89709   -0.40281   0.18210   0.07914   0.89709   -0.40281   0.18210   102.05688
1981   0.07920   0.89669   -0.40391   0.18180   0.07920   0.89669   -0.40391   0.18180   102.03247
1982   0.07927   0.89682   -0.40394   0.18162   0.07927   0.89682   -0.40394   0.18162   101.96228
1983   0.07926   0.89700   -0.40321   0.18168   0.07926   0.89700   -0.40321   0.18168   101.98669
1984   0.07915   0.89697   -0.40327   0.18195   0.07915   0.89697   -0.40327   0.18195   102.06909
1985   0.07925   0.89685   -0.40330   0.18268   0.07925   0.89685   -0.40330   0.18268   102.00806
1986   0.07922   0.89703   -0.40306   0.18210   0.07922   0.89703   -0.40306   0.18210   101.96228
1987   0.07918   0.89660   -0.40422   0.18177   0.07918   0.89660   -0.40422   0.18177   102.01111
1988   0.07909   0.89660   -0.40339   0.18308   0.07909   0.89660   -0.40339   0.18308   102.04773
1989   0.07915   0.89673   -0.40364   0.18226   0.07915   0.89673   -0.40364   0.18226   101.98669
1990   0.07916   0.89685   -0.40345   0.18155   0.07916   0.89685   -0.40345   0.18155   102.02332
1991   0.07916   0.89740   -0.40248   0.18192   0.07916   0.89740   -0.40248   0.18192   102.02332
1992   0.07916   0.89746   -0.40187   0.18271   0.07916   0.89746   -0.40187   0.18271   102.01111
1993   0.07918   0.89694   -0.40315   0.18253   0.07918   0.89694   -0.40315   0.18253   101.98669
1994   0.07918   0.89688   -0.40352   0.18186   0.07918   0.89688   -0.40352   0.18186   102.05688
1995   0.07922   0.89694   -0.40254   0.18314   0.07922   0.89694   -0.40254   0.18314   102.03247
1996   0.07928   0.89727   -0.40242   0.18232   0.07928   0.89727   -0.40242   0.18232   101.91650
1997   0.07924   0.89727   -0.40272   0.18177   0.07924   0.89727   -0.40272   0.18177   101.99585
1998   0.07920   0.89770   -0.40175   0.18177   0.07920   0.89770   -0.40175   0.18177   102.04468
1999   0.07921   0.89740   -0.40208   0.18210   0.07921   0.89740   -0.40208   0.18210   102.04468
2000   0.07927   0.89706   -0.40291   0.18220   0.07927   0.89706   -0.40291   0.18220   101.89209
