Sampling rate: 10000.000 samples/sec
Screen size: 2000 samples
DOP average: 1 SOPsamples
Start time: 14:28:22 5/17/2021
Interval: 0.000100000 sec
(Waveform type: 1,3,4,5)
Index      S0(mW)      S1      S2      S3      S0(mW)      S1      S2      S3      DOP
1   0.11247   0.91736   0.37281   -0.14054   0.11247   0.91736   0.37281   -0.14054   95.48035
2   0.11261   0.91671   0.37413   -0.14103   0.11261   0.91671   0.37413   -0.14103   95.46204
3   0.11259   0.91687   0.37388   -0.14075   0.11259   0.91687   0.37388   -0.14075   95.47729
4   0.11255   0.91675   0.37367   -0.14179   0.11255   0.91675   0.37367   -0.14179   95.54138
5   0.11252   0.91714   0.37269   -0.14203   0.11252   0.91714   0.37269   -0.14203   95.47424
6   0.11257   0.91687   0.37333   -0.14167   0.11257   0.91687   0.37333   -0.14167   95.45898
7   0.11254   0.91733   0.37211   -0.14197   0.11254   0.91733   0.37211   -0.14197   95.49866
8   0.11242   0.91729   0.37248   -0.14142   0.11242   0.91729   0.37248   -0.14142   95.55054
9   0.11242   0.91681   0.37370   -0.14164   0.11242   0.91681   0.37370   -0.14164   95.47119
10   0.11242   0.91659   0.37419   -0.14197   0.11242   0.91659   0.37419   -0.14197   95.46204
11   0.11242   0.91733   0.37214   -0.14231   0.11242   0.91733   0.37214   -0.14231   95.48645
12   0.11248   0.91684   0.37349   -0.14228   0.11248   0.91684   0.37349   -0.14228   95.52002
13   0.11246   0.91723   0.37281   -0.14100   0.11246   0.91723   0.37281   -0.14100   95.46509
14   0.11244   0.91714   0.37275   -0.14182   0.11244   0.91714   0.37275   -0.14182   95.48035
15   0.11247   0.91671   0.37358   -0.14277   0.11247   0.91671   0.37358   -0.14277   95.47119
16   0.11257   0.91675   0.37358   -0.14206   0.11257   0.91675   0.37358   -0.14206   95.53223
17   0.11253   0.91702   0.37291   -0.14197   0.11253   0.91702   0.37291   -0.14197   95.47424
18   0.11261   0.91653   0.37422   -0.14167   0.11261   0.91653   0.37422   -0.14167   95.49255
19   0.11247   0.91653   0.37434   -0.14170   0.11247   0.91653   0.37434   -0.14170   95.51392
20   0.11251   0.91720   0.37269   -0.14203   0.11251   0.91720   0.37269   -0.14203   95.50781
21   0.11252   0.91668   0.37376   -0.14200   0.11252   0.91668   0.37376   -0.14200   95.45898
22   0.11242   0.91684   0.37352   -0.14170   0.11242   0.91684   0.37352   -0.14170   95.52002
23   0.11230   0.91690   0.37294   -0.14231   0.11230   0.91690   0.37294   -0.14231   95.53833
24   0.11244   0.91681   0.37376   -0.14127   0.11244   0.91681   0.37376   -0.14127   95.47119
25   0.11241   0.91675   0.37382   -0.14154   0.11241   0.91675   0.37382   -0.14154   95.47729
26   0.11249   0.91614   0.37501   -0.14228   0.11249   0.91614   0.37501   -0.14228   95.52307
27   0.11250   0.91647   0.37425   -0.14197   0.11250   0.91647   0.37425   -0.14197   95.53833
28   0.11258   0.91650   0.37440   -0.14158   0.11258   0.91650   0.37440   -0.14158   95.46814
29   0.11262   0.91653   0.37416   -0.14225   0.11262   0.91653   0.37416   -0.14225   95.47119
30   0.11262   0.91647   0.37440   -0.14191   0.11262   0.91647   0.37440   -0.14191   95.52612
31   0.11252   0.91705   0.37315   -0.14112   0.11252   0.91705   0.37315   -0.14112   95.49866
32   0.11256   0.91671   0.37410   -0.14127   0.11256   0.91671   0.37410   -0.14127   95.43457
33   0.11255   0.91708   0.37254   -0.14280   0.11255   0.91708   0.37254   -0.14280   95.47424
34   0.11239   0.91653   0.37431   -0.14145   0.11239   0.91653   0.37431   -0.14145   95.52612
35   0.11238   0.91714   0.37272   -0.14176   0.11238   0.91714   0.37272   -0.14176   95.50781
36   0.11240   0.91693   0.37269   -0.14316   0.11240   0.91693   0.37269   -0.14316   95.46204
37   0.11246   0.91684   0.37358   -0.14133   0.11246   0.91684   0.37358   -0.14133   95.48035
38   0.11237   0.91705   0.37251   -0.14267   0.11237   0.91705   0.37251   -0.14267   95.55664
39   0.11239   0.91678   0.37403   -0.14066   0.11239   0.91678   0.37403   -0.14066   95.49255
40   0.11263   0.91708   0.37278   -0.14176   0.11263   0.91708   0.37278   -0.14176   95.43762
41   0.11265   0.91675   0.37333   -0.14280   0.11265   0.91675   0.37333   -0.14280   95.48035
42   0.11242   0.91659   0.37349   -0.14307   0.11242   0.91659   0.37349   -0.14307   95.54443
43   0.11259   0.91656   0.37437   -0.14145   0.11259   0.91656   0.37437   -0.14145   95.47729
44   0.11270   0.91607   0.37510   -0.14194   0.11270   0.91607   0.37510   -0.14194   95.44067
45   0.11268   0.91668   0.37394   -0.14185   0.11268   0.91668   0.37394   -0.14185   95.48950
46   0.11255   0.91720   0.37245   -0.14188   0.11255   0.91720   0.37245   -0.14188   95.57190
47   0.11264   0.91678   0.37349   -0.14231   0.11264   0.91678   0.37349   -0.14231   95.48645
48   0.11255   0.91662   0.37400   -0.14176   0.11255   0.91662   0.37400   -0.14176   95.44983
49   0.11235   0.91684   0.37364   -0.14139   0.11235   0.91684   0.37364   -0.14139   95.50781
50   0.11247   0.91647   0.37443   -0.14161   0.11247   0.91647   0.37443   -0.14161   95.55359
51   0.11246   0.91629   0.37446   -0.14258   0.11246   0.91629   0.37446   -0.14258   95.46509
52   0.11248   0.91659   0.37437   -0.14130   0.11248   0.91659   0.37437   -0.14130   95.46509
53   0.11241   0.91693   0.37315   -0.14237   0.11241   0.91693   0.37315   -0.14237   95.49561
54   0.11242   0.91671   0.37382   -0.14197   0.11242   0.91671   0.37382   -0.14197   95.54443
55   0.11260   0.91678   0.37416   -0.14075   0.11260   0.91678   0.37416   -0.14075   95.47729
56   0.11267   0.91638   0.37458   -0.14197   0.11267   0.91638   0.37458   -0.14197   95.45593
57   0.11260   0.91693   0.37361   -0.14109   0.11260   0.91693   0.37361   -0.14109   95.54138
58   0.11257   0.91665   0.37403   -0.14154   0.11257   0.91665   0.37403   -0.14154   95.54138
59   0.11268   0.91690   0.37379   -0.14029   0.11268   0.91690   0.37379   -0.14029   95.48035
60   0.11252   0.91708   0.37303   -0.14179   0.11252   0.91708   0.37303   -0.14179   95.43457
61   0.11243   0.91723   0.37242   -0.14225   0.11243   0.91723   0.37242   -0.14225   95.49561
62   0.11238   0.91705   0.37260   -0.14264   0.11238   0.91705   0.37260   -0.14264   95.51697
63   0.11249   0.91687   0.37339   -0.14200   0.11249   0.91687   0.37339   -0.14200   95.44983
64   0.11243   0.91647   0.37422   -0.14277   0.11243   0.91647   0.37422   -0.14277   95.43762
65   0.11217   0.91662   0.37446   -0.14069   0.11217   0.91662   0.37446   -0.14069   95.50171
66   0.11250   0.91659   0.37455   -0.14060   0.11250   0.91659   0.37455   -0.14060   95.51392
67   0.11269   0.91723   0.37242   -0.14185   0.11269   0.91723   0.37242   -0.14185   95.46509
68   0.11252   0.91705   0.37333   -0.14075   0.11252   0.91705   0.37333   -0.14075   95.48950
69   0.11241   0.91708   0.37318   -0.14127   0.11241   0.91708   0.37318   -0.14127   95.52002
70   0.11258   0.91690   0.37333   -0.14161   0.11258   0.91690   0.37333   -0.14161   95.50781
71   0.11268   0.91681   0.37352   -0.14139   0.11268   0.91681   0.37352   -0.14139   95.49561
72   0.11254   0.91702   0.37278   -0.14277   0.11254   0.91702   0.37278   -0.14277   95.50781
73   0.11243   0.91702   0.37272   -0.14270   0.11243   0.91702   0.37272   -0.14270   95.49561
74   0.11240   0.91705   0.37275   -0.14258   0.11240   0.91705   0.37275   -0.14258   95.47729
75   0.11237   0.91693   0.37336   -0.14142   0.11237   0.91693   0.37336   -0.14142   95.47729
76   0.11252   0.91675   0.37397   -0.14130   0.11252   0.91675   0.37397   -0.14130   95.50781
77   0.11242   0.91696   0.37339   -0.14133   0.11242   0.91696   0.37339   -0.14133   95.51086
78   0.11260   0.91671   0.37339   -0.14228   0.11260   0.91671   0.37339   -0.14228   95.47729
79   0.11247   0.91711   0.37309   -0.14121   0.11247   0.91711   0.37309   -0.14121   95.51392
80   0.11250   0.91699   0.37309   -0.14240   0.11250   0.91699   0.37309   -0.14240   95.52307
81   0.11262   0.91659   0.37410   -0.14173   0.11262   0.91659   0.37410   -0.14173   95.47729
82   0.11267   0.91647   0.37483   -0.14100   0.11267   0.91647   0.37483   -0.14100   95.44678
83   0.11254   0.91687   0.37361   -0.14154   0.11254   0.91687   0.37361   -0.14154   95.47424
84   0.11256   0.91656   0.37446   -0.14124   0.11256   0.91656   0.37446   -0.14124   95.52612
85   0.11272   0.91644   0.37516   -0.14045   0.11272   0.91644   0.37516   -0.14045   95.47424
86   0.11266   0.91665   0.37403   -0.14154   0.11266   0.91665   0.37403   -0.14154   95.46509
87   0.11248   0.91675   0.37342   -0.14231   0.11248   0.91675   0.37342   -0.14231   95.49561
88   0.11237   0.91653   0.37465   -0.14078   0.11237   0.91653   0.37465   -0.14078   95.51697
89   0.11249   0.91659   0.37477   -0.14042   0.11249   0.91659   0.37477   -0.14042   95.44067
90   0.11255   0.91684   0.37379   -0.14124   0.11255   0.91684   0.37379   -0.14124   95.42542
91   0.11246   0.91690   0.37303   -0.14255   0.11246   0.91690   0.37303   -0.14255   95.52917
92   0.11246   0.91665   0.37382   -0.14234   0.11246   0.91665   0.37382   -0.14234   95.54443
93   0.11266   0.91675   0.37403   -0.14112   0.11266   0.91675   0.37403   -0.14112   95.48035
94   0.11256   0.91650   0.37419   -0.14164   0.11256   0.91650   0.37419   -0.14164   95.45288
95   0.11254   0.91699   0.37324   -0.14115   0.11254   0.91699   0.37324   -0.14115   95.52307
96   0.11249   0.91705   0.37266   -0.14283   0.11249   0.91705   0.37266   -0.14283   95.52917
97   0.11262   0.91662   0.37446   -0.14063   0.11262   0.91662   0.37446   -0.14063   95.44678
98   0.11259   0.91729   0.37260   -0.14130   0.11259   0.91729   0.37260   -0.14130   95.47729
99   0.11249   0.91690   0.37339   -0.14191   0.11249   0.91690   0.37339   -0.14191   95.48950
100   0.11239   0.91717   0.37248   -0.14219   0.11239   0.91717   0.37248   -0.14219   95.53528
101   0.11245   0.91693   0.37324   -0.14212   0.11245   0.91693   0.37324   -0.14212   95.44678
102   0.11246   0.91699   0.37300   -0.14212   0.11246   0.91699   0.37300   -0.14212   95.46509
103   0.11239   0.91699   0.37333   -0.14124   0.11239   0.91699   0.37333   -0.14124   95.52612
104   0.11244   0.91653   0.37407   -0.14203   0.11244   0.91653   0.37407   -0.14203   95.52002
105   0.11257   0.91650   0.37437   -0.14164   0.11257   0.91650   0.37437   -0.14164   95.42847
106   0.11266   0.91650   0.37443   -0.14136   0.11266   0.91650   0.37443   -0.14136   95.46509
107   0.11250   0.91708   0.37278   -0.14240   0.11250   0.91708   0.37278   -0.14240   95.51392
108   0.11254   0.91671   0.37385   -0.14185   0.11254   0.91671   0.37385   -0.14185   95.49866
109   0.11262   0.91681   0.37315   -0.14267   0.11262   0.91681   0.37315   -0.14267   95.45288
110   0.11260   0.91702   0.37312   -0.14176   0.11260   0.91702   0.37312   -0.14176   95.43762
111   0.11256   0.91662   0.37407   -0.14161   0.11256   0.91662   0.37407   -0.14161   95.55664
112   0.11258   0.91641   0.37468   -0.14139   0.11258   0.91641   0.37468   -0.14139   95.51697
113   0.11258   0.91714   0.37266   -0.14225   0.11258   0.91714   0.37266   -0.14225   95.45288
114   0.11245   0.91693   0.37342   -0.14191   0.11245   0.91693   0.37342   -0.14191   95.47119
115   0.11239   0.91702   0.37309   -0.14118   0.11239   0.91702   0.37309   -0.14118   95.51697
116   0.11246   0.91720   0.37306   -0.14060   0.11246   0.91720   0.37306   -0.14060   95.49561
117   0.11247   0.91681   0.37349   -0.14234   0.11247   0.91681   0.37349   -0.14234   95.47119
118   0.11252   0.91708   0.37269   -0.14240   0.11252   0.91708   0.37269   -0.14240   95.48950
119   0.11252   0.91720   0.37281   -0.14084   0.11252   0.91720   0.37281   -0.14084   95.51392
120   0.11253   0.91690   0.37312   -0.14222   0.11253   0.91690   0.37312   -0.14222   95.46814
121   0.11260   0.91702   0.37269   -0.14267   0.11260   0.91702   0.37269   -0.14267   95.47729
122   0.11253   0.91629   0.37477   -0.14200   0.11253   0.91629   0.37477   -0.14200   95.48340
123   0.11259   0.91748   0.37208   -0.14173   0.11259   0.91748   0.37208   -0.14173   95.49255
124   0.11257   0.91702   0.37336   -0.14096   0.11257   0.91702   0.37336   -0.14096   95.48340
125   0.11250   0.91687   0.37342   -0.14206   0.11250   0.91687   0.37342   -0.14206   95.47424
126   0.11246   0.91693   0.37327   -0.14179   0.11246   0.91693   0.37327   -0.14179   95.52002
127   0.11242   0.91696   0.37336   -0.14148   0.11242   0.91696   0.37336   -0.14148   95.48645
128   0.11245   0.91705   0.37294   -0.14179   0.11245   0.91705   0.37294   -0.14179   95.46204
129   0.11258   0.91681   0.37349   -0.14167   0.11258   0.91681   0.37349   -0.14167   95.48340
130   0.11252   0.91644   0.37449   -0.14200   0.11252   0.91644   0.37449   -0.14200   95.50781
131   0.11260   0.91675   0.37391   -0.14124   0.11260   0.91675   0.37391   -0.14124   95.46814
132   0.11256   0.91653   0.37443   -0.14103   0.11256   0.91653   0.37443   -0.14103   95.45898
133   0.11254   0.91693   0.37312   -0.14234   0.11254   0.91693   0.37312   -0.14234   95.48340
134   0.11254   0.91656   0.37400   -0.14194   0.11254   0.91656   0.37400   -0.14194   95.53223
135   0.11266   0.91635   0.37535   -0.13971   0.11266   0.91635   0.37535   -0.13971   95.47119
136   0.11262   0.91681   0.37342   -0.14231   0.11262   0.91681   0.37342   -0.14231   95.47119
137   0.11258   0.91690   0.37336   -0.14179   0.11258   0.91690   0.37336   -0.14179   95.53223
138   0.11248   0.91668   0.37385   -0.14191   0.11248   0.91668   0.37385   -0.14191   95.51392
139   0.11243   0.91644   0.37394   -0.14286   0.11243   0.91644   0.37394   -0.14286   95.45593
140   0.11247   0.91678   0.37367   -0.14222   0.11247   0.91678   0.37367   -0.14222   95.47119
141   0.11240   0.91705   0.37309   -0.14118   0.11240   0.91705   0.37309   -0.14118   95.51697
142   0.11243   0.91687   0.37373   -0.14115   0.11243   0.91687   0.37373   -0.14115   95.51086
143   0.11263   0.91629   0.37516   -0.14112   0.11263   0.91629   0.37516   -0.14112   95.45288
144   0.11252   0.91708   0.37330   -0.14103   0.11252   0.91708   0.37330   -0.14103   95.48340
145   0.11256   0.91650   0.37443   -0.14154   0.11256   0.91650   0.37443   -0.14154   95.53223
146   0.11234   0.91659   0.37425   -0.14145   0.11234   0.91659   0.37425   -0.14145   95.51697
147   0.11247   0.91644   0.37535   -0.13941   0.11247   0.91644   0.37535   -0.13941   95.47119
148   0.11275   0.91614   0.37510   -0.14197   0.11275   0.91614   0.37510   -0.14197   95.44983
149   0.11263   0.91632   0.37474   -0.14209   0.11263   0.91632   0.37474   -0.14209   95.52612
150   0.11250   0.91671   0.37358   -0.14231   0.11250   0.91671   0.37358   -0.14231   95.52307
151   0.11251   0.91632   0.37498   -0.14185   0.11251   0.91632   0.37498   -0.14185   95.40100
152   0.11247   0.91644   0.37449   -0.14151   0.11247   0.91644   0.37449   -0.14151   95.48950
153   0.11246   0.91668   0.37376   -0.14182   0.11246   0.91668   0.37376   -0.14182   95.54443
154   0.11248   0.91656   0.37416   -0.14194   0.11248   0.91656   0.37416   -0.14194   95.51392
155   0.11256   0.91671   0.37400   -0.14118   0.11256   0.91671   0.37400   -0.14118   95.45288
156   0.11251   0.91665   0.37376   -0.14191   0.11251   0.91665   0.37376   -0.14191   95.46509
157   0.11246   0.91659   0.37342   -0.14325   0.11246   0.91659   0.37342   -0.14325   95.52917
158   0.11266   0.91671   0.37382   -0.14136   0.11266   0.91671   0.37382   -0.14136   95.50476
159   0.11263   0.91668   0.37379   -0.14222   0.11263   0.91668   0.37379   -0.14222   95.40405
160   0.11254   0.91681   0.37324   -0.14249   0.11254   0.91681   0.37324   -0.14249   95.49255
161   0.11246   0.91647   0.37443   -0.14191   0.11246   0.91647   0.37443   -0.14191   95.52917
162   0.11258   0.91638   0.37461   -0.14194   0.11258   0.91638   0.37461   -0.14194   95.45898
163   0.11260   0.91638   0.37495   -0.14106   0.11260   0.91638   0.37495   -0.14106   95.44373
164   0.11263   0.91626   0.37495   -0.14185   0.11263   0.91626   0.37495   -0.14185   95.48645
165   0.11252   0.91635   0.37507   -0.14087   0.11252   0.91635   0.37507   -0.14087   95.53223
166   0.11251   0.91650   0.37452   -0.14106   0.11251   0.91650   0.37452   -0.14106   95.45898
167   0.11242   0.91662   0.37422   -0.14063   0.11242   0.91662   0.37422   -0.14063   95.43762
168   0.11256   0.91644   0.37510   -0.14051   0.11256   0.91644   0.37510   -0.14051   95.51697
169   0.11260   0.91662   0.37413   -0.14133   0.11260   0.91662   0.37413   -0.14133   95.51697
170   0.11268   0.91668   0.37419   -0.14096   0.11268   0.91668   0.37419   -0.14096   95.46509
171   0.11256   0.91659   0.37449   -0.14096   0.11256   0.91659   0.37449   -0.14096   95.45898
172   0.11259   0.91635   0.37477   -0.14170   0.11259   0.91635   0.37477   -0.14170   95.50171
173   0.11265   0.91614   0.37553   -0.14127   0.11265   0.91614   0.37553   -0.14127   95.49561
174   0.11265   0.91656   0.37422   -0.14182   0.11265   0.91656   0.37422   -0.14182   95.48645
175   0.11261   0.91623   0.37504   -0.14176   0.11261   0.91623   0.37504   -0.14176   95.45288
176   0.11249   0.91632   0.37519   -0.14084   0.11249   0.91632   0.37519   -0.14084   95.51392
177   0.11245   0.91626   0.37504   -0.14164   0.11245   0.91626   0.37504   -0.14164   95.48035
178   0.11245   0.91617   0.37571   -0.14045   0.11245   0.91617   0.37571   -0.14045   95.44678
179   0.11255   0.91650   0.37507   -0.13987   0.11255   0.91650   0.37507   -0.13987   95.48340
180   0.11247   0.91623   0.37504   -0.14136   0.11247   0.91623   0.37504   -0.14136   95.49561
181   0.11268   0.91653   0.37461   -0.14078   0.11268   0.91653   0.37461   -0.14078   95.48035
182   0.11250   0.91659   0.37489   -0.13981   0.11250   0.91659   0.37489   -0.13981   95.48950
183   0.11232   0.91650   0.37465   -0.14106   0.11232   0.91650   0.37465   -0.14106   95.48340
184   0.11253   0.91635   0.37498   -0.14103   0.11253   0.91635   0.37498   -0.14103   95.52307
185   0.11279   0.91632   0.37529   -0.14020   0.11279   0.91632   0.37529   -0.14020   95.47729
186   0.11259   0.91656   0.37410   -0.14191   0.11259   0.91656   0.37410   -0.14191   95.46204
187   0.11254   0.91638   0.37495   -0.14096   0.11254   0.91638   0.37495   -0.14096   95.49255
188   0.11262   0.91629   0.37553   -0.14014   0.11262   0.91629   0.37553   -0.14014   95.52612
189   0.11256   0.91665   0.37434   -0.14090   0.11256   0.91665   0.37434   -0.14090   95.45898
190   0.11248   0.91638   0.37489   -0.14081   0.11248   0.91638   0.37489   -0.14081   95.47119
191   0.11230   0.91659   0.37455   -0.14081   0.11230   0.91659   0.37455   -0.14081   95.50476
192   0.11252   0.91604   0.37605   -0.14042   0.11252   0.91604   0.37605   -0.14042   95.49866
193   0.11245   0.91629   0.37574   -0.13926   0.11245   0.91629   0.37574   -0.13926   95.46204
194   0.11249   0.91659   0.37446   -0.14100   0.11249   0.91659   0.37446   -0.14100   95.48035
195   0.11242   0.91620   0.37584   -0.13971   0.11242   0.91620   0.37584   -0.13971   95.49561
196   0.11248   0.91675   0.37413   -0.14072   0.11248   0.91675   0.37413   -0.14072   95.48035
197   0.11257   0.91632   0.37541   -0.14026   0.11257   0.91632   0.37541   -0.14026   95.40405
198   0.11267   0.91632   0.37577   -0.13929   0.11267   0.91632   0.37577   -0.13929   95.48950
199   0.11252   0.91647   0.37486   -0.14020   0.11252   0.91647   0.37486   -0.14020   95.53833
200   0.11253   0.91635   0.37523   -0.14054   0.11253   0.91635   0.37523   -0.14054   95.45898
201   0.11262   0.91623   0.37526   -0.14118   0.11262   0.91623   0.37526   -0.14118   95.40405
202   0.11250   0.91665   0.37416   -0.14170   0.11250   0.91665   0.37416   -0.14170   95.48035
203   0.11240   0.91650   0.37465   -0.14118   0.11240   0.91650   0.37465   -0.14118   95.55054
204   0.11238   0.91586   0.37602   -0.14103   0.11238   0.91586   0.37602   -0.14103   95.45898
205   0.11252   0.91614   0.37556   -0.14066   0.11252   0.91614   0.37556   -0.14066   95.42542
206   0.11243   0.91650   0.37498   -0.14029   0.11243   0.91650   0.37498   -0.14029   95.49561
207   0.11248   0.91620   0.37584   -0.13993   0.11248   0.91620   0.37584   -0.13993   95.55359
208   0.11249   0.91562   0.37684   -0.14039   0.11249   0.91562   0.37684   -0.14039   95.46509
209   0.11257   0.91610   0.37577   -0.14029   0.11257   0.91610   0.37577   -0.14029   95.42847
210   0.11263   0.91598   0.37562   -0.14124   0.11263   0.91598   0.37562   -0.14124   95.47119
211   0.11250   0.91617   0.37544   -0.14127   0.11250   0.91617   0.37544   -0.14127   95.50476
212   0.11257   0.91629   0.37535   -0.14039   0.11257   0.91629   0.37535   -0.14039   95.45288
213   0.11258   0.91629   0.37526   -0.14060   0.11258   0.91629   0.37526   -0.14060   95.41931
214   0.11264   0.91620   0.37571   -0.14023   0.11264   0.91620   0.37571   -0.14023   95.49561
215   0.11257   0.91607   0.37571   -0.14078   0.11257   0.91607   0.37571   -0.14078   95.52612
216   0.11253   0.91614   0.37513   -0.14179   0.11253   0.91614   0.37513   -0.14179   95.41931
217   0.11252   0.91614   0.37617   -0.13935   0.11252   0.91614   0.37617   -0.13935   95.43457
218   0.11254   0.91583   0.37651   -0.14014   0.11254   0.91583   0.37651   -0.14014   95.46814
219   0.11254   0.91589   0.37654   -0.13965   0.11254   0.91589   0.37654   -0.13965   95.49866
220   0.11255   0.91571   0.37687   -0.13996   0.11255   0.91571   0.37687   -0.13996   95.44373
221   0.11265   0.91607   0.37577   -0.14051   0.11265   0.91607   0.37577   -0.14051   95.43762
222   0.11245   0.91571   0.37669   -0.14075   0.11245   0.91571   0.37669   -0.14075   95.49561
223   0.11248   0.91559   0.37715   -0.14017   0.11248   0.91559   0.37715   -0.14017   95.47119
224   0.11268   0.91562   0.37727   -0.13984   0.11268   0.91562   0.37727   -0.13984   95.40710
225   0.11258   0.91565   0.37715   -0.13968   0.11258   0.91565   0.37715   -0.13968   95.46814
226   0.11252   0.91559   0.37690   -0.14054   0.11252   0.91559   0.37690   -0.14054   95.49866
227   0.11254   0.91623   0.37596   -0.13947   0.11254   0.91623   0.37596   -0.13947   95.47424
228   0.11252   0.91598   0.37617   -0.14017   0.11252   0.91598   0.37617   -0.14017   95.45898
229   0.11247   0.91617   0.37565   -0.14118   0.11247   0.91617   0.37565   -0.14118   95.43152
230   0.11235   0.91623   0.37553   -0.14029   0.11235   0.91623   0.37553   -0.14029   95.49255
231   0.11254   0.91580   0.37696   -0.13910   0.11254   0.91580   0.37696   -0.13910   95.47424
232   0.11253   0.91546   0.37742   -0.14072   0.11253   0.91546   0.37742   -0.14072   95.45898
233   0.11257   0.91546   0.37767   -0.13962   0.11257   0.91546   0.37767   -0.13962   95.48340
234   0.11249   0.91647   0.37519   -0.14002   0.11249   0.91647   0.37519   -0.14002   95.48035
235   0.11255   0.91577   0.37684   -0.14017   0.11255   0.91577   0.37684   -0.14017   95.44983
236   0.11253   0.91610   0.37623   -0.13919   0.11253   0.91610   0.37623   -0.13919   95.45898
237   0.11262   0.91556   0.37745   -0.14008   0.11262   0.91556   0.37745   -0.14008   95.48645
238   0.11255   0.91580   0.37687   -0.13935   0.11255   0.91580   0.37687   -0.13935   95.47424
239   0.11260   0.91562   0.37709   -0.14039   0.11260   0.91562   0.37709   -0.14039   95.42847
240   0.11254   0.91552   0.37696   -0.14103   0.11254   0.91552   0.37696   -0.14103   95.45898
241   0.11246   0.91571   0.37700   -0.14042   0.11246   0.91571   0.37700   -0.14042   95.49561
242   0.11242   0.91580   0.37693   -0.14002   0.11242   0.91580   0.37693   -0.14002   95.44678
243   0.11242   0.91568   0.37721   -0.13996   0.11242   0.91568   0.37721   -0.13996   95.41321
244   0.11257   0.91504   0.37870   -0.13965   0.11257   0.91504   0.37870   -0.13965   95.46814
245   0.11236   0.91580   0.37709   -0.13923   0.11236   0.91580   0.37709   -0.13923   95.51697
246   0.11253   0.91559   0.37718   -0.14032   0.11253   0.91559   0.37718   -0.14032   95.43457
247   0.11264   0.91580   0.37672   -0.13999   0.11264   0.91580   0.37672   -0.13999   95.42236
248   0.11260   0.91549   0.37733   -0.14051   0.11260   0.91549   0.37733   -0.14051   95.49255
249   0.11245   0.91556   0.37693   -0.14096   0.11245   0.91556   0.37693   -0.14096   95.51086
250   0.11255   0.91568   0.37690   -0.14011   0.11255   0.91568   0.37690   -0.14011   95.42542
251   0.11258   0.91562   0.37715   -0.14008   0.11258   0.91562   0.37715   -0.14008   95.42847
252   0.11252   0.91574   0.37620   -0.14197   0.11252   0.91574   0.37620   -0.14197   95.50781
253   0.11255   0.91494   0.37877   -0.13968   0.11255   0.91494   0.37877   -0.13968   95.50781
254   0.11260   0.91552   0.37681   -0.14112   0.11260   0.91552   0.37681   -0.14112   95.44373
255   0.11250   0.91565   0.37742   -0.13916   0.11250   0.91565   0.37742   -0.13916   95.42542
256   0.11236   0.91565   0.37706   -0.13974   0.11236   0.91565   0.37706   -0.13974   95.50781
257   0.11244   0.91537   0.37761   -0.14023   0.11244   0.91537   0.37761   -0.14023   95.48645
258   0.11244   0.91537   0.37782   -0.13971   0.11244   0.91537   0.37782   -0.13971   95.41321
259   0.11260   0.91519   0.37837   -0.13984   0.11260   0.91519   0.37837   -0.13984   95.42847
260   0.11255   0.91510   0.37803   -0.14063   0.11255   0.91510   0.37803   -0.14063   95.51697
261   0.11248   0.91540   0.37727   -0.14060   0.11248   0.91540   0.37727   -0.14060   95.52002
262   0.11259   0.91516   0.37776   -0.14133   0.11259   0.91516   0.37776   -0.14133   95.37048
263   0.11261   0.91525   0.37764   -0.14136   0.11261   0.91525   0.37764   -0.14136   95.42236
264   0.11242   0.91522   0.37822   -0.14008   0.11242   0.91522   0.37822   -0.14008   95.48645
265   0.11225   0.91528   0.37791   -0.14039   0.11225   0.91528   0.37791   -0.14039   95.49561
266   0.11265   0.91491   0.37870   -0.14048   0.11265   0.91491   0.37870   -0.14048   95.38269
267   0.11273   0.91494   0.37873   -0.14039   0.11273   0.91494   0.37873   -0.14039   95.41626
268   0.11238   0.91556   0.37733   -0.13996   0.11238   0.91556   0.37733   -0.13996   95.50171
269   0.11224   0.91510   0.37794   -0.14090   0.11224   0.91510   0.37794   -0.14090   95.49561
270   0.11252   0.91488   0.37892   -0.13968   0.11252   0.91488   0.37892   -0.13968   95.39185
271   0.11246   0.91534   0.37788   -0.13990   0.11246   0.91534   0.37788   -0.13990   95.41626
272   0.11248   0.91559   0.37690   -0.14090   0.11248   0.91559   0.37690   -0.14090   95.48035
273   0.11244   0.91510   0.37840   -0.14029   0.11244   0.91510   0.37840   -0.14029   95.44678
274   0.11249   0.91559   0.37712   -0.14060   0.11249   0.91559   0.37712   -0.14060   95.38269
275   0.11248   0.91528   0.37773   -0.14087   0.11248   0.91528   0.37773   -0.14087   95.43152
276   0.11248   0.91568   0.37703   -0.14035   0.11248   0.91568   0.37703   -0.14035   95.48950
277   0.11248   0.91443   0.37968   -0.14072   0.11248   0.91443   0.37968   -0.14072   95.45593
278   0.11258   0.91540   0.37736   -0.14090   0.11258   0.91540   0.37736   -0.14090   95.41931
279   0.11262   0.91467   0.37907   -0.14103   0.11262   0.91467   0.37907   -0.14103   95.42847
280   0.11242   0.91482   0.37852   -0.14139   0.11242   0.91482   0.37852   -0.14139   95.50171
281   0.11247   0.91504   0.37864   -0.14005   0.11247   0.91504   0.37864   -0.14005   95.44067
282   0.11252   0.91467   0.37907   -0.14072   0.11252   0.91467   0.37907   -0.14072   95.41016
283   0.11246   0.91488   0.37828   -0.14188   0.11246   0.91488   0.37828   -0.14188   95.44067
284   0.11242   0.91531   0.37800   -0.13959   0.11242   0.91531   0.37800   -0.13959   95.47119
285   0.11254   0.91516   0.37828   -0.13993   0.11254   0.91516   0.37828   -0.13993   95.44983
286   0.11262   0.91531   0.37800   -0.14011   0.11262   0.91531   0.37800   -0.14011   95.43762
287   0.11258   0.91540   0.37739   -0.14075   0.11258   0.91540   0.37739   -0.14075   95.45898
288   0.11252   0.91519   0.37800   -0.14057   0.11252   0.91519   0.37800   -0.14057   95.44983
289   0.11258   0.91540   0.37751   -0.13999   0.11258   0.91540   0.37751   -0.13999   95.43457
290   0.11261   0.91513   0.37819   -0.14072   0.11261   0.91513   0.37819   -0.14072   95.41321
291   0.11255   0.91482   0.37913   -0.13981   0.11255   0.91482   0.37913   -0.13981   95.44983
292   0.11252   0.91546   0.37696   -0.14164   0.11252   0.91546   0.37696   -0.14164   95.44067
293   0.11253   0.91485   0.37870   -0.14039   0.11253   0.91485   0.37870   -0.14039   95.41016
294   0.11244   0.91510   0.37812   -0.14075   0.11244   0.91510   0.37812   -0.14075   95.43152
295   0.11240   0.91504   0.37819   -0.14072   0.11240   0.91504   0.37819   -0.14072   95.48645
296   0.11252   0.91455   0.37956   -0.14029   0.11252   0.91455   0.37956   -0.14029   95.44067
297   0.11246   0.91494   0.37864   -0.14051   0.11246   0.91494   0.37864   -0.14051   95.46509
298   0.11250   0.91516   0.37782   -0.14103   0.11250   0.91516   0.37782   -0.14103   95.43152
299   0.11246   0.91482   0.37870   -0.14106   0.11246   0.91482   0.37870   -0.14106   95.48035
300   0.11253   0.91482   0.37904   -0.14029   0.11253   0.91482   0.37904   -0.14029   95.41016
301   0.11255   0.91464   0.37904   -0.14115   0.11255   0.91464   0.37904   -0.14115   95.41931
302   0.11252   0.91491   0.37889   -0.14039   0.11252   0.91491   0.37889   -0.14039   95.44983
303   0.11246   0.91443   0.37977   -0.14075   0.11246   0.91443   0.37977   -0.14075   95.49561
304   0.11258   0.91458   0.37974   -0.14005   0.11258   0.91458   0.37974   -0.14005   95.42847
305   0.11254   0.91482   0.37907   -0.14048   0.11254   0.91482   0.37907   -0.14048   95.42542
306   0.11249   0.91476   0.37883   -0.14066   0.11249   0.91476   0.37883   -0.14066   95.46509
307   0.11233   0.91455   0.37968   -0.14005   0.11233   0.91455   0.37968   -0.14005   95.49866
308   0.11246   0.91494   0.37852   -0.14051   0.11246   0.91494   0.37852   -0.14051   95.39795
309   0.11249   0.91482   0.37892   -0.14014   0.11249   0.91482   0.37892   -0.14014   95.43152
310   0.11242   0.91494   0.37846   -0.14093   0.11242   0.91494   0.37846   -0.14093   95.45288
311   0.11245   0.91473   0.37919   -0.14002   0.11245   0.91473   0.37919   -0.14002   95.46204
312   0.11252   0.91485   0.37922   -0.13944   0.11252   0.91485   0.37922   -0.13944   95.37659
313   0.11265   0.91467   0.37870   -0.14167   0.11265   0.91467   0.37870   -0.14167   95.41321
314   0.11246   0.91513   0.37822   -0.14060   0.11246   0.91513   0.37822   -0.14060   95.47119
315   0.11252   0.91501   0.37837   -0.14103   0.11252   0.91501   0.37837   -0.14103   95.45898
316   0.11255   0.91501   0.37877   -0.13950   0.11255   0.91501   0.37877   -0.13950   95.38574
317   0.11255   0.91449   0.37971   -0.14057   0.11255   0.91449   0.37971   -0.14057   95.41931
318   0.11258   0.91464   0.37904   -0.14121   0.11258   0.91464   0.37904   -0.14121   95.54138
319   0.11244   0.91412   0.38050   -0.14109   0.11244   0.91412   0.38050   -0.14109   95.46204
320   0.11247   0.91507   0.37858   -0.14020   0.11247   0.91507   0.37858   -0.14020   95.37354
321   0.11238   0.91479   0.37883   -0.14087   0.11238   0.91479   0.37883   -0.14087   95.44373
322   0.11235   0.91476   0.37925   -0.14048   0.11235   0.91476   0.37925   -0.14048   95.50781
323   0.11242   0.91494   0.37916   -0.13968   0.11242   0.91494   0.37916   -0.13968   95.44678
324   0.11252   0.91488   0.37858   -0.14063   0.11252   0.91488   0.37858   -0.14063   95.37659
325   0.11247   0.91476   0.37898   -0.14069   0.11247   0.91476   0.37898   -0.14069   95.44067
326   0.11241   0.91494   0.37840   -0.14090   0.11241   0.91494   0.37840   -0.14090   95.51086
327   0.11250   0.91485   0.37873   -0.14084   0.11250   0.91485   0.37873   -0.14084   95.41626
328   0.11257   0.91476   0.37916   -0.13993   0.11257   0.91476   0.37916   -0.13993   95.40405
329   0.11247   0.91513   0.37855   -0.13977   0.11247   0.91513   0.37855   -0.13977   95.42236
330   0.11252   0.91433   0.38026   -0.13968   0.11252   0.91433   0.38026   -0.13968   95.52307
331   0.11260   0.91449   0.37977   -0.14048   0.11260   0.91449   0.37977   -0.14048   95.45288
332   0.11261   0.91452   0.38005   -0.13941   0.11261   0.91452   0.38005   -0.13941   95.40405
333   0.11238   0.91513   0.37858   -0.13971   0.11238   0.91513   0.37858   -0.13971   95.41931
334   0.11246   0.91455   0.37974   -0.14023   0.11246   0.91455   0.37974   -0.14023   95.47119
335   0.11247   0.91504   0.37846   -0.14039   0.11247   0.91504   0.37846   -0.14039   95.43152
336   0.11248   0.91449   0.37941   -0.14103   0.11248   0.91449   0.37941   -0.14103   95.40710
337   0.11254   0.91427   0.37992   -0.14084   0.11254   0.91427   0.37992   -0.14084   95.45898
338   0.11250   0.91437   0.37968   -0.14100   0.11250   0.91437   0.37968   -0.14100   95.49866
339   0.11249   0.91458   0.37977   -0.13987   0.11249   0.91458   0.37977   -0.13987   95.42542
340   0.11260   0.91418   0.38057   -0.14014   0.11260   0.91418   0.38057   -0.14014   95.44373
341   0.11250   0.91430   0.37965   -0.14154   0.11250   0.91430   0.37965   -0.14154   95.48035
342   0.11247   0.91461   0.37950   -0.14026   0.11247   0.91461   0.37950   -0.14026   95.46509
343   0.11260   0.91494   0.37870   -0.14078   0.11260   0.91494   0.37870   -0.14078   95.41321
344   0.11253   0.91479   0.37916   -0.14023   0.11253   0.91479   0.37916   -0.14023   95.41931
345   0.11244   0.91449   0.37919   -0.14182   0.11244   0.91449   0.37919   -0.14182   95.48035
346   0.11216   0.91470   0.37953   -0.13965   0.11216   0.91470   0.37953   -0.13965   95.46814
347   0.11234   0.91418   0.38112   -0.13855   0.11234   0.91418   0.38112   -0.13855   95.42542
348   0.11251   0.91437   0.38011   -0.14051   0.11251   0.91437   0.38011   -0.14051   95.43457
349   0.11251   0.91504   0.37831   -0.14051   0.11251   0.91504   0.37831   -0.14051   95.47424
350   0.11252   0.91473   0.37965   -0.13932   0.11252   0.91473   0.37965   -0.13932   95.44983
351   0.11251   0.91446   0.37996   -0.13999   0.11251   0.91446   0.37996   -0.13999   95.41016
352   0.11252   0.91473   0.37895   -0.14090   0.11252   0.91473   0.37895   -0.14090   95.42542
353   0.11254   0.91476   0.37941   -0.13999   0.11254   0.91476   0.37941   -0.13999   95.45898
354   0.11261   0.91501   0.37861   -0.13999   0.11261   0.91501   0.37861   -0.13999   95.40405
355   0.11257   0.91488   0.37901   -0.13987   0.11257   0.91488   0.37901   -0.13987   95.42847
356   0.11265   0.91473   0.37983   -0.13907   0.11265   0.91473   0.37983   -0.13907   95.50476
357   0.11252   0.91452   0.37953   -0.14072   0.11252   0.91452   0.37953   -0.14072   95.47424
358   0.11253   0.91452   0.37974   -0.13990   0.11253   0.91452   0.37974   -0.13990   95.41016
359   0.11243   0.91449   0.37965   -0.14069   0.11243   0.91449   0.37965   -0.14069   95.39795
360   0.11239   0.91470   0.37938   -0.13971   0.11239   0.91470   0.37938   -0.13971   95.49255
361   0.11243   0.91504   0.37800   -0.14130   0.11243   0.91504   0.37800   -0.14130   95.43762
362   0.11252   0.91485   0.37916   -0.13981   0.11252   0.91485   0.37916   -0.13981   95.38574
363   0.11251   0.91488   0.37907   -0.13987   0.11251   0.91488   0.37907   -0.13987   95.42542
364   0.11254   0.91458   0.37907   -0.14167   0.11254   0.91458   0.37907   -0.14167   95.47424
365   0.11270   0.91488   0.37873   -0.14106   0.11270   0.91488   0.37873   -0.14106   95.44067
366   0.11254   0.91446   0.37992   -0.14029   0.11254   0.91446   0.37992   -0.14029   95.39490
367   0.11239   0.91461   0.37910   -0.14161   0.11239   0.91461   0.37910   -0.14161   95.41321
368   0.11261   0.91397   0.38081   -0.14115   0.11261   0.91397   0.38081   -0.14115   95.45288
369   0.11270   0.91433   0.38038   -0.13977   0.11270   0.91433   0.38038   -0.13977   95.42542
370   0.11270   0.91485   0.37898   -0.14005   0.11270   0.91485   0.37898   -0.14005   95.40100
371   0.11252   0.91504   0.37822   -0.14072   0.11252   0.91504   0.37822   -0.14072   95.43457
372   0.11228   0.91494   0.37877   -0.14039   0.11228   0.91494   0.37877   -0.14039   95.48950
373   0.11247   0.91461   0.37950   -0.14057   0.11247   0.91461   0.37950   -0.14057   95.42236
374   0.11255   0.91519   0.37815   -0.14020   0.11255   0.91519   0.37815   -0.14020   95.41016
375   0.11250   0.91488   0.37895   -0.14008   0.11250   0.91488   0.37895   -0.14008   95.43152
376   0.11242   0.91494   0.37831   -0.14133   0.11242   0.91494   0.37831   -0.14133   95.47729
377   0.11260   0.91446   0.37989   -0.14008   0.11260   0.91446   0.37989   -0.14008   95.46814
378   0.11258   0.91461   0.37941   -0.14023   0.11258   0.91461   0.37941   -0.14023   95.41016
379   0.11256   0.91510   0.37828   -0.14081   0.11256   0.91510   0.37828   -0.14081   95.41931
380   0.11260   0.91485   0.37925   -0.13968   0.11260   0.91485   0.37925   -0.13968   95.50171
381   0.11276   0.91473   0.37898   -0.14103   0.11276   0.91473   0.37898   -0.14103   95.41016
382   0.11250   0.91519   0.37831   -0.13974   0.11250   0.91519   0.37831   -0.13974   95.41626
383   0.11228   0.91491   0.37858   -0.14032   0.11228   0.91491   0.37858   -0.14032   95.51392
384   0.11256   0.91482   0.37910   -0.14014   0.11256   0.91482   0.37910   -0.14014   95.47729
385   0.11252   0.91531   0.37819   -0.13895   0.11252   0.91531   0.37819   -0.13895   95.41626
386   0.11243   0.91537   0.37748   -0.14045   0.11243   0.91537   0.37748   -0.14045   95.43152
387   0.11223   0.91485   0.37873   -0.14054   0.11223   0.91485   0.37873   -0.14054   95.48645
388   0.11238   0.91534   0.37779   -0.13987   0.11238   0.91534   0.37779   -0.13987   95.53223
389   0.11254   0.91470   0.37913   -0.14075   0.11254   0.91470   0.37913   -0.14075   95.39490
390   0.11262   0.91507   0.37870   -0.13901   0.11262   0.91507   0.37870   -0.13901   95.42236
391   0.11248   0.91531   0.37724   -0.14151   0.11248   0.91531   0.37724   -0.14151   95.46509
392   0.11252   0.91461   0.37947   -0.14032   0.11252   0.91461   0.37947   -0.14032   95.49866
393   0.11256   0.91516   0.37846   -0.13996   0.11256   0.91516   0.37846   -0.13996   95.39490
394   0.11254   0.91498   0.37864   -0.14005   0.11254   0.91498   0.37864   -0.14005   95.46814
395   0.11252   0.91464   0.37931   -0.14048   0.11252   0.91464   0.37931   -0.14048   95.48340
396   0.11256   0.91494   0.37861   -0.14026   0.11256   0.91494   0.37861   -0.14026   95.48340
397   0.11263   0.91494   0.37889   -0.13968   0.11263   0.91494   0.37889   -0.13968   95.44678
398   0.11243   0.91501   0.37840   -0.14072   0.11243   0.91501   0.37840   -0.14072   95.43152
399   0.11242   0.91540   0.37742   -0.14069   0.11242   0.91540   0.37742   -0.14069   95.49561
400   0.11241   0.91491   0.37873   -0.14023   0.11241   0.91491   0.37873   -0.14023   95.46204
401   0.11251   0.91485   0.37873   -0.14075   0.11251   0.91485   0.37873   -0.14075   95.42542
402   0.11249   0.91513   0.37858   -0.13956   0.11249   0.91513   0.37858   -0.13956   95.47424
403   0.11248   0.91549   0.37745   -0.14017   0.11248   0.91549   0.37745   -0.14017   95.48035
404   0.11255   0.91519   0.37812   -0.13971   0.11255   0.91519   0.37812   -0.13971   95.41016
405   0.11252   0.91507   0.37855   -0.14029   0.11252   0.91507   0.37855   -0.14029   95.41626
406   0.11253   0.91531   0.37761   -0.14075   0.11253   0.91531   0.37761   -0.14075   95.45898
407   0.11262   0.91470   0.37895   -0.14106   0.11262   0.91470   0.37895   -0.14106   95.47119
408   0.11260   0.91491   0.37837   -0.14096   0.11260   0.91491   0.37837   -0.14096   95.41931
409   0.11252   0.91537   0.37764   -0.14060   0.11252   0.91537   0.37764   -0.14060   95.42542
410   0.11246   0.91537   0.37736   -0.14078   0.11246   0.91537   0.37736   -0.14078   95.49561
411   0.11237   0.91516   0.37831   -0.14014   0.11237   0.91516   0.37831   -0.14014   95.46814
412   0.11249   0.91534   0.37736   -0.14084   0.11249   0.91534   0.37736   -0.14084   95.43152
413   0.11243   0.91519   0.37788   -0.14106   0.11243   0.91519   0.37788   -0.14106   95.44678
414   0.11244   0.91519   0.37773   -0.14115   0.11244   0.91519   0.37773   -0.14115   95.48035
415   0.11248   0.91531   0.37822   -0.13974   0.11248   0.91531   0.37822   -0.13974   95.44678
416   0.11258   0.91549   0.37742   -0.13984   0.11258   0.91549   0.37742   -0.13984   95.41931
417   0.11252   0.91549   0.37709   -0.14069   0.11252   0.91549   0.37709   -0.14069   95.47424
418   0.11252   0.91552   0.37700   -0.14072   0.11252   0.91552   0.37700   -0.14072   95.48950
419   0.11258   0.91525   0.37751   -0.14145   0.11258   0.91525   0.37751   -0.14145   95.44373
420   0.11267   0.91537   0.37788   -0.14014   0.11267   0.91537   0.37788   -0.14014   95.44678
421   0.11254   0.91531   0.37800   -0.14008   0.11254   0.91531   0.37800   -0.14008   95.48340
422   0.11250   0.91556   0.37693   -0.14051   0.11250   0.91556   0.37693   -0.14051   95.48035
423   0.11250   0.91537   0.37761   -0.14011   0.11250   0.91537   0.37761   -0.14011   95.44067
424   0.11249   0.91525   0.37843   -0.13923   0.11249   0.91525   0.37843   -0.13923   95.43152
425   0.11244   0.91510   0.37797   -0.14087   0.11244   0.91510   0.37797   -0.14087   95.48035
426   0.11240   0.91525   0.37794   -0.14069   0.11240   0.91525   0.37794   -0.14069   95.51697
427   0.11252   0.91552   0.37736   -0.13962   0.11252   0.91552   0.37736   -0.13962   95.44067
428   0.11252   0.91580   0.37660   -0.14026   0.11252   0.91580   0.37660   -0.14026   95.42542
429   0.11249   0.91583   0.37632   -0.14081   0.11249   0.91583   0.37632   -0.14081   95.48035
430   0.11258   0.91507   0.37846   -0.14023   0.11258   0.91507   0.37846   -0.14023   95.50781
431   0.11270   0.91552   0.37764   -0.13962   0.11270   0.91552   0.37764   -0.13962   95.40710
432   0.11262   0.91543   0.37690   -0.14176   0.11262   0.91543   0.37690   -0.14176   95.41321
433   0.11248   0.91583   0.37675   -0.13959   0.11248   0.91583   0.37675   -0.13959   95.49561
434   0.11264   0.91507   0.37846   -0.14014   0.11264   0.91507   0.37846   -0.14014   95.48035
435   0.11271   0.91513   0.37837   -0.13981   0.11271   0.91513   0.37837   -0.13981   95.41016
436   0.11251   0.91525   0.37776   -0.14087   0.11251   0.91525   0.37776   -0.14087   95.44983
437   0.11234   0.91546   0.37696   -0.14112   0.11234   0.91546   0.37696   -0.14112   95.50781
438   0.11243   0.91592   0.37602   -0.14109   0.11243   0.91592   0.37602   -0.14109   95.47119
439   0.11251   0.91574   0.37651   -0.14161   0.11251   0.91574   0.37651   -0.14161   95.40100
440   0.11249   0.91574   0.37666   -0.14048   0.11249   0.91574   0.37666   -0.14048   95.45593
441   0.11254   0.91540   0.37712   -0.14158   0.11254   0.91540   0.37712   -0.14158   95.49255
442   0.11251   0.91571   0.37663   -0.14084   0.11251   0.91571   0.37663   -0.14084   95.48950
443   0.11270   0.91565   0.37687   -0.14002   0.11270   0.91565   0.37687   -0.14002   95.43152
444   0.11260   0.91552   0.37681   -0.14133   0.11260   0.91552   0.37681   -0.14133   95.42847
445   0.11250   0.91556   0.37696   -0.14063   0.11250   0.91556   0.37696   -0.14063   95.53833
446   0.11261   0.91565   0.37666   -0.14148   0.11261   0.91565   0.37666   -0.14148   95.44678
447   0.11275   0.91540   0.37721   -0.14148   0.11275   0.91540   0.37721   -0.14148   95.42542
448   0.11264   0.91519   0.37776   -0.14069   0.11264   0.91519   0.37776   -0.14069   95.46204
449   0.11241   0.91565   0.37675   -0.14124   0.11241   0.91565   0.37675   -0.14124   95.49561
450   0.11235   0.91592   0.37580   -0.14139   0.11235   0.91592   0.37580   -0.14139   95.45898
451   0.11255   0.91604   0.37526   -0.14240   0.11255   0.91604   0.37526   -0.14240   95.41931
452   0.11242   0.91571   0.37626   -0.14203   0.11242   0.91571   0.37626   -0.14203   95.48645
453   0.11242   0.91577   0.37645   -0.14100   0.11242   0.91577   0.37645   -0.14100   95.47729
454   0.11249   0.91586   0.37608   -0.14127   0.11249   0.91586   0.37608   -0.14127   95.41626
455   0.11252   0.91546   0.37693   -0.14121   0.11252   0.91546   0.37693   -0.14121   95.46509
456   0.11247   0.91598   0.37584   -0.14103   0.11247   0.91598   0.37584   -0.14103   95.51392
457   0.11251   0.91562   0.37657   -0.14179   0.11251   0.91562   0.37657   -0.14179   95.48950
458   0.11256   0.91583   0.37632   -0.14106   0.11256   0.91583   0.37632   -0.14106   95.43457
459   0.11254   0.91568   0.37614   -0.14200   0.11254   0.91568   0.37614   -0.14200   95.47424
460   0.11254   0.91614   0.37565   -0.14087   0.11254   0.91614   0.37565   -0.14087   95.49866
461   0.11262   0.91534   0.37761   -0.14039   0.11262   0.91534   0.37761   -0.14039   95.46204
462   0.11249   0.91598   0.37608   -0.14090   0.11249   0.91598   0.37608   -0.14090   95.43152
463   0.11241   0.91574   0.37611   -0.14185   0.11241   0.91574   0.37611   -0.14185   95.47729
464   0.11233   0.91595   0.37559   -0.14206   0.11233   0.91595   0.37559   -0.14206   95.46814
465   0.11219   0.91546   0.37712   -0.14118   0.11219   0.91546   0.37712   -0.14118   95.43762
466   0.11257   0.91528   0.37767   -0.14072   0.11257   0.91528   0.37767   -0.14072   95.44373
467   0.11263   0.91604   0.37565   -0.14109   0.11263   0.91604   0.37565   -0.14109   95.49561
468   0.11253   0.91598   0.37648   -0.14008   0.11253   0.91598   0.37648   -0.14008   95.47424
469   0.11245   0.91562   0.37721   -0.13996   0.11245   0.91562   0.37721   -0.13996   95.46204
470   0.11258   0.91580   0.37642   -0.14109   0.11258   0.91580   0.37642   -0.14109   95.46814
471   0.11263   0.91571   0.37669   -0.14060   0.11263   0.91571   0.37669   -0.14060   95.51086
472   0.11260   0.91592   0.37629   -0.14060   0.11260   0.91592   0.37629   -0.14060   95.46204
473   0.11262   0.91589   0.37635   -0.14002   0.11262   0.91589   0.37635   -0.14002   95.43762
474   0.11250   0.91546   0.37718   -0.14063   0.11250   0.91546   0.37718   -0.14063   95.44983
475   0.11240   0.91617   0.37513   -0.14231   0.11240   0.91617   0.37513   -0.14231   95.51086
476   0.11235   0.91565   0.37614   -0.14243   0.11235   0.91565   0.37614   -0.14243   95.51697
477   0.11255   0.91580   0.37721   -0.13883   0.11255   0.91580   0.37721   -0.13883   95.40100
478   0.11250   0.91623   0.37532   -0.14096   0.11250   0.91623   0.37532   -0.14096   95.45593
479   0.11243   0.91614   0.37580   -0.14072   0.11243   0.91614   0.37580   -0.14072   95.52917
480   0.11263   0.91583   0.37638   -0.14045   0.11263   0.91583   0.37638   -0.14045   95.49561
481   0.11270   0.91610   0.37611   -0.13956   0.11270   0.91610   0.37611   -0.13956   95.42542
482   0.11260   0.91617   0.37568   -0.13996   0.11260   0.91617   0.37568   -0.13996   95.49255
483   0.11252   0.91519   0.37779   -0.14100   0.11252   0.91519   0.37779   -0.14100   95.51392
484   0.11265   0.91614   0.37523   -0.14182   0.11265   0.91614   0.37523   -0.14182   95.46204
485   0.11273   0.91583   0.37623   -0.14096   0.11273   0.91583   0.37623   -0.14096   95.42542
486   0.11265   0.91577   0.37654   -0.14063   0.11265   0.91577   0.37654   -0.14063   95.48035
487   0.11250   0.91571   0.37632   -0.14170   0.11250   0.91571   0.37632   -0.14170   95.56274
488   0.11248   0.91568   0.37666   -0.14130   0.11248   0.91568   0.37666   -0.14130   95.48035
489   0.11250   0.91620   0.37550   -0.14057   0.11250   0.91620   0.37550   -0.14057   95.40710
490   0.11252   0.91589   0.37593   -0.14148   0.11252   0.91589   0.37593   -0.14148   95.47424
491   0.11242   0.91629   0.37562   -0.14032   0.11242   0.91629   0.37562   -0.14032   95.54443
492   0.11247   0.91592   0.37626   -0.14112   0.11247   0.91592   0.37626   -0.14112   95.45593
493   0.11258   0.91583   0.37632   -0.14069   0.11258   0.91583   0.37632   -0.14069   95.40405
494   0.11255   0.91614   0.37519   -0.14212   0.11255   0.91614   0.37519   -0.14212   95.45898
495   0.11249   0.91620   0.37513   -0.14182   0.11249   0.91620   0.37513   -0.14182   95.50476
496   0.11267   0.91592   0.37617   -0.14124   0.11267   0.91592   0.37617   -0.14124   95.47119
497   0.11259   0.91610   0.37580   -0.14060   0.11259   0.91610   0.37580   -0.14060   95.43762
498   0.11256   0.91598   0.37605   -0.14054   0.11256   0.91598   0.37605   -0.14054   95.49255
499   0.11251   0.91562   0.37666   -0.14188   0.11251   0.91562   0.37666   -0.14188   95.47424
500   0.11251   0.91595   0.37596   -0.14139   0.11251   0.91595   0.37596   -0.14139   95.44983
501   0.11245   0.91598   0.37584   -0.14151   0.11245   0.91598   0.37584   -0.14151   95.45593
502   0.11240   0.91589   0.37611   -0.14057   0.11240   0.91589   0.37611   -0.14057   95.47729
503   0.11242   0.91614   0.37565   -0.14084   0.11242   0.91614   0.37565   -0.14084   95.47729
504   0.11246   0.91668   0.37443   -0.14081   0.11246   0.91668   0.37443   -0.14081   95.45593
505   0.11245   0.91620   0.37501   -0.14194   0.11245   0.91620   0.37501   -0.14194   95.47119
506   0.11248   0.91626   0.37513   -0.14164   0.11248   0.91626   0.37513   -0.14164   95.46509
507   0.11250   0.91571   0.37660   -0.14075   0.11250   0.91571   0.37660   -0.14075   95.44983
508   0.11253   0.91614   0.37535   -0.14161   0.11253   0.91614   0.37535   -0.14161   95.44373
509   0.11252   0.91601   0.37565   -0.14130   0.11252   0.91601   0.37565   -0.14130   95.48950
510   0.11251   0.91610   0.37529   -0.14158   0.11251   0.91610   0.37529   -0.14158   95.50781
511   0.11258   0.91629   0.37486   -0.14164   0.11258   0.91629   0.37486   -0.14164   95.45288
512   0.11258   0.91635   0.37474   -0.14209   0.11258   0.91635   0.37474   -0.14209   95.45288
513   0.11257   0.91598   0.37571   -0.14124   0.11257   0.91598   0.37571   -0.14124   95.52612
514   0.11250   0.91583   0.37642   -0.14069   0.11250   0.91583   0.37642   -0.14069   95.48035
515   0.11253   0.91644   0.37519   -0.13984   0.11253   0.91644   0.37519   -0.13984   95.44983
516   0.11249   0.91635   0.37519   -0.14026   0.11249   0.91635   0.37519   -0.14026   95.47424
517   0.11244   0.91629   0.37519   -0.14115   0.11244   0.91629   0.37519   -0.14115   95.51086
518   0.11249   0.91644   0.37461   -0.14121   0.11249   0.91644   0.37461   -0.14121   95.49866
519   0.11250   0.91626   0.37574   -0.14005   0.11250   0.91626   0.37574   -0.14005   95.44067
520   0.11256   0.91650   0.37458   -0.14100   0.11256   0.91650   0.37458   -0.14100   95.48340
521   0.11245   0.91629   0.37504   -0.14145   0.11245   0.91629   0.37504   -0.14145   95.52002
522   0.11257   0.91614   0.37553   -0.14127   0.11257   0.91614   0.37553   -0.14127   95.43457
523   0.11262   0.91610   0.37538   -0.14158   0.11262   0.91610   0.37538   -0.14158   95.41321
524   0.11255   0.91604   0.37529   -0.14176   0.11255   0.91604   0.37529   -0.14176   95.52307
525   0.11251   0.91595   0.37562   -0.14176   0.11251   0.91595   0.37562   -0.14176   95.53223
526   0.11252   0.91662   0.37461   -0.14060   0.11252   0.91662   0.37461   -0.14060   95.44983
527   0.11248   0.91592   0.37574   -0.14158   0.11248   0.91592   0.37574   -0.14158   95.43152
528   0.11240   0.91656   0.37446   -0.14136   0.11240   0.91656   0.37446   -0.14136   95.48645
529   0.11249   0.91601   0.37584   -0.14109   0.11249   0.91601   0.37584   -0.14109   95.52917
530   0.11248   0.91626   0.37547   -0.14078   0.11248   0.91626   0.37547   -0.14078   95.45593
531   0.11251   0.91598   0.37538   -0.14228   0.11251   0.91598   0.37538   -0.14228   95.43457
532   0.11247   0.91656   0.37471   -0.14106   0.11247   0.91656   0.37471   -0.14106   95.50476
533   0.11247   0.91607   0.37489   -0.14270   0.11247   0.91607   0.37489   -0.14270   95.52917
534   0.11256   0.91610   0.37513   -0.14219   0.11256   0.91610   0.37513   -0.14219   95.45898
535   0.11271   0.91598   0.37611   -0.14069   0.11271   0.91598   0.37611   -0.14069   95.43457
536   0.11256   0.91659   0.37410   -0.14212   0.11256   0.91659   0.37410   -0.14212   95.50781
537   0.11252   0.91644   0.37492   -0.14081   0.11252   0.91644   0.37492   -0.14081   95.53223
538   0.11259   0.91626   0.37486   -0.14145   0.11259   0.91626   0.37486   -0.14145   95.43762
539   0.11252   0.91617   0.37529   -0.14130   0.11252   0.91617   0.37529   -0.14130   95.44067
540   0.11244   0.91617   0.37510   -0.14203   0.11244   0.91617   0.37510   -0.14203   95.46204
541   0.11235   0.91583   0.37574   -0.14209   0.11235   0.91583   0.37574   -0.14209   95.52307
542   0.11257   0.91586   0.37648   -0.14023   0.11257   0.91586   0.37648   -0.14023   95.45288
543   0.11253   0.91614   0.37498   -0.14209   0.11253   0.91614   0.37498   -0.14209   95.44373
544   0.11246   0.91626   0.37529   -0.14051   0.11246   0.91626   0.37529   -0.14051   95.52002
545   0.11242   0.91650   0.37471   -0.14090   0.11242   0.91650   0.37471   -0.14090   95.51086
546   0.11250   0.91577   0.37645   -0.14090   0.11250   0.91577   0.37645   -0.14090   95.43152
547   0.11246   0.91617   0.37553   -0.14106   0.11246   0.91617   0.37553   -0.14106   95.44067
548   0.11265   0.91607   0.37577   -0.14112   0.11265   0.91607   0.37577   -0.14112   95.51086
549   0.11265   0.91617   0.37541   -0.14148   0.11265   0.91617   0.37541   -0.14148   95.48645
550   0.11268   0.91629   0.37465   -0.14249   0.11268   0.91629   0.37465   -0.14249   95.43152
551   0.11259   0.91635   0.37428   -0.14310   0.11259   0.91635   0.37428   -0.14310   95.41931
552   0.11248   0.91662   0.37400   -0.14209   0.11248   0.91662   0.37400   -0.14209   95.51392
553   0.11247   0.91632   0.37550   -0.14005   0.11247   0.91632   0.37550   -0.14005   95.49561
554   0.11257   0.91675   0.37434   -0.14054   0.11257   0.91675   0.37434   -0.14054   95.45898
555   0.11253   0.91650   0.37480   -0.14048   0.11253   0.91650   0.37480   -0.14048   95.44983
556   0.11243   0.91644   0.37452   -0.14158   0.11243   0.91644   0.37452   -0.14158   95.55359
557   0.11256   0.91647   0.37443   -0.14161   0.11256   0.91647   0.37443   -0.14161   95.47729
558   0.11258   0.91629   0.37455   -0.14292   0.11258   0.91629   0.37455   -0.14292   95.47729
559   0.11252   0.91614   0.37516   -0.14176   0.11252   0.91614   0.37516   -0.14176   95.47424
560   0.11252   0.91696   0.37318   -0.14191   0.11252   0.91696   0.37318   -0.14191   95.48950
561   0.11263   0.91635   0.37486   -0.14142   0.11263   0.91635   0.37486   -0.14142   95.50171
562   0.11260   0.91635   0.37477   -0.14191   0.11260   0.91635   0.37477   -0.14191   95.46814
563   0.11261   0.91668   0.37355   -0.14267   0.11261   0.91668   0.37355   -0.14267   95.46814
564   0.11260   0.91699   0.37327   -0.14136   0.11260   0.91699   0.37327   -0.14136   95.53528
565   0.11272   0.91662   0.37428   -0.14124   0.11272   0.91662   0.37428   -0.14124   95.47424
566   0.11248   0.91665   0.37385   -0.14209   0.11248   0.91665   0.37385   -0.14209   95.45593
567   0.11225   0.91659   0.37400   -0.14219   0.11225   0.91659   0.37400   -0.14219   95.48645
568   0.11242   0.91659   0.37394   -0.14225   0.11242   0.91659   0.37394   -0.14225   95.54443
569   0.11266   0.91687   0.37321   -0.14209   0.11266   0.91687   0.37321   -0.14209   95.47119
570   0.11265   0.91665   0.37422   -0.14139   0.11265   0.91665   0.37422   -0.14139   95.47119
571   0.11250   0.91684   0.37373   -0.14167   0.11250   0.91684   0.37373   -0.14167   95.50476
572   0.11250   0.91656   0.37416   -0.14203   0.11250   0.91656   0.37416   -0.14203   95.48035
573   0.11260   0.91659   0.37431   -0.14133   0.11260   0.91659   0.37431   -0.14133   95.43762
574   0.11265   0.91653   0.37468   -0.14103   0.11265   0.91653   0.37468   -0.14103   95.46204
575   0.11256   0.91702   0.37312   -0.14158   0.11256   0.91702   0.37312   -0.14158   95.50781
576   0.11258   0.91644   0.37446   -0.14164   0.11258   0.91644   0.37446   -0.14164   95.46814
577   0.11261   0.91675   0.37321   -0.14304   0.11261   0.91675   0.37321   -0.14304   95.43762
578   0.11252   0.91662   0.37425   -0.14115   0.11252   0.91662   0.37425   -0.14115   95.48340
579   0.11242   0.91675   0.37342   -0.14219   0.11242   0.91675   0.37342   -0.14219   95.52612
580   0.11259   0.91671   0.37394   -0.14164   0.11259   0.91671   0.37394   -0.14164   95.47729
581   0.11273   0.91638   0.37431   -0.14243   0.11273   0.91638   0.37431   -0.14243   95.45898
582   0.11241   0.91656   0.37397   -0.14216   0.11241   0.91656   0.37397   -0.14216   95.45288
583   0.11228   0.91684   0.37336   -0.14252   0.11228   0.91684   0.37336   -0.14252   95.51392
584   0.11269   0.91623   0.37544   -0.14106   0.11269   0.91623   0.37544   -0.14106   95.44983
585   0.11269   0.91699   0.37327   -0.14158   0.11269   0.91699   0.37327   -0.14158   95.43152
586   0.11246   0.91668   0.37385   -0.14191   0.11246   0.91668   0.37385   -0.14191   95.51392
587   0.11246   0.91644   0.37434   -0.14173   0.11246   0.91644   0.37434   -0.14173   95.55359
588   0.11269   0.91592   0.37571   -0.14197   0.11269   0.91592   0.37571   -0.14197   95.44983
589   0.11274   0.91647   0.37480   -0.14072   0.11274   0.91647   0.37480   -0.14072   95.49255
590   0.11251   0.91668   0.37394   -0.14136   0.11251   0.91668   0.37394   -0.14136   95.49866
591   0.11253   0.91650   0.37458   -0.14112   0.11253   0.91650   0.37458   -0.14112   95.52307
592   0.11245   0.91690   0.37403   -0.14051   0.11245   0.91690   0.37403   -0.14051   95.43152
593   0.11244   0.91656   0.37471   -0.14035   0.11244   0.91656   0.37471   -0.14035   95.48645
594   0.11239   0.91684   0.37367   -0.14161   0.11239   0.91684   0.37367   -0.14161   95.51697
595   0.11242   0.91705   0.37297   -0.14219   0.11242   0.91705   0.37297   -0.14219   95.51086
596   0.11250   0.91647   0.37428   -0.14203   0.11250   0.91647   0.37428   -0.14203   95.44983
597   0.11249   0.91690   0.37373   -0.14115   0.11249   0.91690   0.37373   -0.14115   95.46509
598   0.11252   0.91675   0.37297   -0.14377   0.11252   0.91675   0.37297   -0.14377   95.50781
599   0.11252   0.91684   0.37339   -0.14197   0.11252   0.91684   0.37339   -0.14197   95.51392
600   0.11272   0.91675   0.37407   -0.14136   0.11272   0.91675   0.37407   -0.14136   95.42542
601   0.11255   0.91653   0.37382   -0.14249   0.11255   0.91653   0.37382   -0.14249   95.46814
602   0.11254   0.91705   0.37275   -0.14243   0.11254   0.91705   0.37275   -0.14243   95.54138
603   0.11254   0.91702   0.37297   -0.14206   0.11254   0.91702   0.37297   -0.14206   95.50781
604   0.11254   0.91681   0.37425   -0.14051   0.11254   0.91681   0.37425   -0.14051   95.41931
605   0.11244   0.91681   0.37333   -0.14194   0.11244   0.91681   0.37333   -0.14194   95.48645
606   0.11239   0.91632   0.37428   -0.14304   0.11239   0.91632   0.37428   -0.14304   95.52612
607   0.11242   0.91681   0.37355   -0.14228   0.11242   0.91681   0.37355   -0.14228   95.49561
608   0.11252   0.91675   0.37376   -0.14145   0.11252   0.91675   0.37376   -0.14145   95.45898
609   0.11252   0.91650   0.37422   -0.14188   0.11252   0.91650   0.37422   -0.14188   95.48340
610   0.11247   0.91656   0.37410   -0.14231   0.11247   0.91656   0.37410   -0.14231   95.52917
611   0.11254   0.91678   0.37358   -0.14243   0.11254   0.91678   0.37358   -0.14243   95.50781
612   0.11258   0.91681   0.37376   -0.14161   0.11258   0.91681   0.37376   -0.14161   95.44373
613   0.11261   0.91653   0.37397   -0.14246   0.11261   0.91653   0.37397   -0.14246   95.46814
614   0.11256   0.91699   0.37300   -0.14206   0.11256   0.91699   0.37300   -0.14206   95.55054
615   0.11261   0.91693   0.37312   -0.14206   0.11261   0.91693   0.37312   -0.14206   95.47729
616   0.11259   0.91665   0.37394   -0.14225   0.11259   0.91665   0.37394   -0.14225   95.44373
617   0.11252   0.91678   0.37324   -0.14246   0.11252   0.91678   0.37324   -0.14246   95.48950
618   0.11240   0.91678   0.37349   -0.14231   0.11240   0.91678   0.37349   -0.14231   95.51697
619   0.11248   0.91662   0.37416   -0.14158   0.11248   0.91662   0.37416   -0.14158   95.49561
620   0.11260   0.91650   0.37449   -0.14142   0.11260   0.91650   0.37449   -0.14142   95.44373
621   0.11253   0.91705   0.37248   -0.14319   0.11253   0.91705   0.37248   -0.14319   95.49255
622   0.11245   0.91693   0.37355   -0.14139   0.11245   0.91693   0.37355   -0.14139   95.51086
623   0.11256   0.91687   0.37352   -0.14154   0.11256   0.91687   0.37352   -0.14154   95.45898
624   0.11258   0.91675   0.37349   -0.14231   0.11258   0.91675   0.37349   -0.14231   95.46814
625   0.11253   0.91684   0.37312   -0.14240   0.11253   0.91684   0.37312   -0.14240   95.54138
626   0.11257   0.91620   0.37443   -0.14292   0.11257   0.91620   0.37443   -0.14292   95.49255
627   0.11261   0.91675   0.37364   -0.14182   0.11261   0.91675   0.37364   -0.14182   95.44678
628   0.11257   0.91650   0.37419   -0.14225   0.11257   0.91650   0.37419   -0.14225   95.50171
629   0.11250   0.91662   0.37410   -0.14182   0.11250   0.91662   0.37410   -0.14182   95.48950
630   0.11250   0.91641   0.37428   -0.14252   0.11250   0.91641   0.37428   -0.14252   95.48035
631   0.11240   0.91626   0.37455   -0.14252   0.11240   0.91626   0.37455   -0.14252   95.46814
632   0.11242   0.91644   0.37452   -0.14197   0.11242   0.91644   0.37452   -0.14197   95.52612
633   0.11245   0.91681   0.37333   -0.14209   0.11245   0.91681   0.37333   -0.14209   95.49561
634   0.11251   0.91684   0.37342   -0.14176   0.11251   0.91684   0.37342   -0.14176   95.47424
635   0.11252   0.91635   0.37452   -0.14246   0.11252   0.91635   0.37452   -0.14246   95.45898
636   0.11250   0.91638   0.37416   -0.14310   0.11250   0.91638   0.37416   -0.14310   95.50476
637   0.11252   0.91653   0.37434   -0.14161   0.11252   0.91653   0.37434   -0.14161   95.48950
638   0.11258   0.91647   0.37434   -0.14194   0.11258   0.91647   0.37434   -0.14194   95.45288
639   0.11261   0.91702   0.37297   -0.14222   0.11261   0.91702   0.37297   -0.14222   95.47729
640   0.11253   0.91662   0.37382   -0.14283   0.11253   0.91662   0.37382   -0.14283   95.51697
641   0.11261   0.91675   0.37358   -0.14194   0.11261   0.91675   0.37358   -0.14194   95.50171
642   0.11261   0.91656   0.37416   -0.14164   0.11261   0.91656   0.37416   -0.14164   95.43762
643   0.11252   0.91662   0.37410   -0.14188   0.11252   0.91662   0.37410   -0.14188   95.47424
644   0.11236   0.91629   0.37422   -0.14371   0.11236   0.91629   0.37422   -0.14371   95.50781
645   0.11244   0.91675   0.37315   -0.14283   0.11244   0.91675   0.37315   -0.14283   95.52917
646   0.11254   0.91662   0.37400   -0.14194   0.11254   0.91662   0.37400   -0.14194   95.44373
647   0.11265   0.91675   0.37352   -0.14240   0.11265   0.91675   0.37352   -0.14240   95.44678
648   0.11257   0.91632   0.37428   -0.14319   0.11257   0.91632   0.37428   -0.14319   95.51697
649   0.11252   0.91641   0.37434   -0.14270   0.11252   0.91641   0.37434   -0.14270   95.48340
650   0.11259   0.91687   0.37324   -0.14237   0.11259   0.91687   0.37324   -0.14237   95.42847
651   0.11260   0.91629   0.37461   -0.14243   0.11260   0.91629   0.37461   -0.14243   95.46204
652   0.11255   0.91684   0.37330   -0.14185   0.11255   0.91684   0.37330   -0.14185   95.55664
653   0.11252   0.91665   0.37391   -0.14219   0.11252   0.91665   0.37391   -0.14219   95.48340
654   0.11263   0.91653   0.37446   -0.14139   0.11263   0.91653   0.37446   -0.14139   95.41321
655   0.11252   0.91668   0.37394   -0.14142   0.11252   0.91668   0.37394   -0.14142   95.47424
656   0.11240   0.91635   0.37434   -0.14267   0.11240   0.91635   0.37434   -0.14267   95.55054
657   0.11239   0.91641   0.37413   -0.14237   0.11239   0.91641   0.37413   -0.14237   95.48645
658   0.11254   0.91678   0.37349   -0.14228   0.11254   0.91678   0.37349   -0.14228   95.43457
659   0.11242   0.91659   0.37355   -0.14301   0.11242   0.91659   0.37355   -0.14301   95.51086
660   0.11242   0.91671   0.37367   -0.14255   0.11242   0.91671   0.37367   -0.14255   95.52612
661   0.11250   0.91656   0.37419   -0.14127   0.11250   0.91656   0.37419   -0.14127   95.46509
662   0.11259   0.91699   0.37297   -0.14249   0.11259   0.91699   0.37297   -0.14249   95.43762
663   0.11252   0.91684   0.37358   -0.14173   0.11252   0.91684   0.37358   -0.14173   95.50781
664   0.11242   0.91629   0.37501   -0.14139   0.11242   0.91629   0.37501   -0.14139   95.52612
665   0.11225   0.91678   0.37336   -0.14258   0.11225   0.91678   0.37336   -0.14258   95.47119
666   0.11263   0.91659   0.37410   -0.14182   0.11263   0.91659   0.37410   -0.14182   95.47119
667   0.11270   0.91690   0.37333   -0.14240   0.11270   0.91690   0.37333   -0.14240   95.48950
668   0.11252   0.91665   0.37358   -0.14258   0.11252   0.91665   0.37358   -0.14258   95.53223
669   0.11251   0.91656   0.37416   -0.14203   0.11251   0.91656   0.37416   -0.14203   95.47424
670   0.11236   0.91699   0.37318   -0.14170   0.11236   0.91699   0.37318   -0.14170   95.41931
671   0.11243   0.91632   0.37471   -0.14191   0.11243   0.91632   0.37471   -0.14191   95.48645
672   0.11240   0.91690   0.37318   -0.14206   0.11240   0.91690   0.37318   -0.14206   95.51697
673   0.11248   0.91681   0.37327   -0.14234   0.11248   0.91681   0.37327   -0.14234   95.48035
674   0.11249   0.91632   0.37452   -0.14231   0.11249   0.91632   0.37452   -0.14231   95.44067
675   0.11249   0.91702   0.37275   -0.14264   0.11249   0.91702   0.37275   -0.14264   95.49866
676   0.11248   0.91656   0.37400   -0.14277   0.11248   0.91656   0.37400   -0.14277   95.51392
677   0.11252   0.91668   0.37367   -0.14197   0.11252   0.91668   0.37367   -0.14197   95.49866
678   0.11257   0.91729   0.37214   -0.14246   0.11257   0.91729   0.37214   -0.14246   95.45898
679   0.11252   0.91668   0.37388   -0.14191   0.11252   0.91668   0.37388   -0.14191   95.51392
680   0.11256   0.91696   0.37336   -0.14164   0.11256   0.91696   0.37336   -0.14164   95.49255
681   0.11265   0.91687   0.37355   -0.14142   0.11265   0.91687   0.37355   -0.14142   95.44678
682   0.11256   0.91678   0.37336   -0.14264   0.11256   0.91678   0.37336   -0.14264   95.48340
683   0.11237   0.91675   0.37315   -0.14362   0.11237   0.91675   0.37315   -0.14362   95.51697
684   0.11250   0.91659   0.37394   -0.14170   0.11250   0.91659   0.37394   -0.14170   95.50476
685   0.11253   0.91681   0.37355   -0.14179   0.11253   0.91681   0.37355   -0.14179   95.46814
686   0.11258   0.91687   0.37349   -0.14188   0.11258   0.91687   0.37349   -0.14188   95.49255
687   0.11252   0.91690   0.37324   -0.14206   0.11252   0.91690   0.37324   -0.14206   95.53223
688   0.11257   0.91687   0.37327   -0.14231   0.11257   0.91687   0.37327   -0.14231   95.47729
689   0.11257   0.91690   0.37333   -0.14200   0.11257   0.91690   0.37333   -0.14200   95.45898
690   0.11254   0.91687   0.37355   -0.14182   0.11254   0.91687   0.37355   -0.14182   95.49866
691   0.11253   0.91675   0.37339   -0.14246   0.11253   0.91675   0.37339   -0.14246   95.52307
692   0.11257   0.91742   0.37239   -0.14124   0.11257   0.91742   0.37239   -0.14124   95.47729
693   0.11258   0.91684   0.37349   -0.14206   0.11258   0.91684   0.37349   -0.14206   95.45288
694   0.11249   0.91699   0.37297   -0.14246   0.11249   0.91699   0.37297   -0.14246   95.51392
695   0.11249   0.91687   0.37342   -0.14176   0.11249   0.91687   0.37342   -0.14176   95.51392
696   0.11244   0.91687   0.37352   -0.14151   0.11244   0.91687   0.37352   -0.14151   95.43152
697   0.11245   0.91748   0.37205   -0.14212   0.11245   0.91748   0.37205   -0.14212   95.49561
698   0.11241   0.91638   0.37397   -0.14325   0.11241   0.91638   0.37397   -0.14325   95.52612
699   0.11249   0.91733   0.37272   -0.14112   0.11249   0.91733   0.37272   -0.14112   95.50476
700   0.11252   0.91632   0.37461   -0.14197   0.11252   0.91632   0.37461   -0.14197   95.43457
701   0.11255   0.91705   0.37230   -0.14344   0.11255   0.91705   0.37230   -0.14344   95.48340
702   0.11248   0.91690   0.37330   -0.14206   0.11248   0.91690   0.37330   -0.14206   95.51392
703   0.11253   0.91659   0.37416   -0.14185   0.11253   0.91659   0.37416   -0.14185   95.50781
704   0.11264   0.91717   0.37263   -0.14203   0.11264   0.91717   0.37263   -0.14203   95.43152
705   0.11259   0.91690   0.37306   -0.14234   0.11259   0.91690   0.37306   -0.14234   95.47729
706   0.11253   0.91723   0.37199   -0.14347   0.11253   0.91723   0.37199   -0.14347   95.54138
707   0.11252   0.91671   0.37391   -0.14154   0.11252   0.91671   0.37391   -0.14154   95.48340
708   0.11254   0.91696   0.37321   -0.14206   0.11254   0.91696   0.37321   -0.14206   95.42542
709   0.11238   0.91708   0.37233   -0.14277   0.11238   0.91708   0.37233   -0.14277   95.49255
710   0.11242   0.91675   0.37355   -0.14225   0.11242   0.91675   0.37355   -0.14225   95.55969
711   0.11250   0.91675   0.37361   -0.14206   0.11250   0.91675   0.37361   -0.14206   95.47424
712   0.11257   0.91671   0.37407   -0.14093   0.11257   0.91671   0.37407   -0.14093   95.43457
713   0.11250   0.91696   0.37288   -0.14219   0.11250   0.91696   0.37288   -0.14219   95.51392
714   0.11251   0.91696   0.37327   -0.14173   0.11251   0.91696   0.37327   -0.14173   95.53833
715   0.11257   0.91702   0.37330   -0.14112   0.11257   0.91702   0.37330   -0.14112   95.49255
716   0.11266   0.91699   0.37281   -0.14261   0.11266   0.91699   0.37281   -0.14261   95.43152
717   0.11255   0.91736   0.37272   -0.14096   0.11255   0.91736   0.37272   -0.14096   95.49866
718   0.11262   0.91659   0.37437   -0.14133   0.11262   0.91659   0.37437   -0.14133   95.54443
719   0.11262   0.91653   0.37394   -0.14231   0.11262   0.91653   0.37394   -0.14231   95.45288
720   0.11261   0.91708   0.37248   -0.14307   0.11261   0.91708   0.37248   -0.14307   95.45288
721   0.11242   0.91681   0.37318   -0.14270   0.11242   0.91681   0.37318   -0.14270   95.52002
722   0.11236   0.91675   0.37349   -0.14234   0.11236   0.91675   0.37349   -0.14234   95.54138
723   0.11258   0.91678   0.37361   -0.14176   0.11258   0.91678   0.37361   -0.14176   95.44373
724   0.11253   0.91745   0.37223   -0.14145   0.11253   0.91745   0.37223   -0.14145   95.44983
725   0.11248   0.91696   0.37306   -0.14243   0.11248   0.91696   0.37306   -0.14243   95.48035
726   0.11249   0.91681   0.37355   -0.14161   0.11249   0.91681   0.37355   -0.14161   95.52307
727   0.11264   0.91699   0.37297   -0.14188   0.11264   0.91699   0.37297   -0.14188   95.45593
728   0.11258   0.91699   0.37330   -0.14139   0.11258   0.91699   0.37330   -0.14139   95.44373
729   0.11254   0.91684   0.37306   -0.14301   0.11254   0.91684   0.37306   -0.14301   95.51697
730   0.11254   0.91656   0.37397   -0.14200   0.11254   0.91656   0.37397   -0.14200   95.49866
731   0.11263   0.91696   0.37339   -0.14133   0.11263   0.91696   0.37339   -0.14133   95.47119
732   0.11254   0.91678   0.37355   -0.14206   0.11254   0.91678   0.37355   -0.14206   95.51697
733   0.11249   0.91720   0.37205   -0.14292   0.11249   0.91720   0.37205   -0.14292   95.52307
734   0.11244   0.91678   0.37324   -0.14307   0.11244   0.91678   0.37324   -0.14307   95.50476
735   0.11245   0.91717   0.37233   -0.14292   0.11245   0.91717   0.37233   -0.14292   95.49561
736   0.11247   0.91702   0.37272   -0.14231   0.11247   0.91702   0.37272   -0.14231   95.52002
737   0.11245   0.91696   0.37297   -0.14252   0.11245   0.91696   0.37297   -0.14252   95.48645
738   0.11253   0.91726   0.37291   -0.14039   0.11253   0.91726   0.37291   -0.14039   95.48340
739   0.11253   0.91748   0.37205   -0.14164   0.11253   0.91748   0.37205   -0.14164   95.47424
740   0.11255   0.91681   0.37327   -0.14286   0.11255   0.91681   0.37327   -0.14286   95.49255
741   0.11253   0.91696   0.37303   -0.14246   0.11253   0.91696   0.37303   -0.14246   95.50781
742   0.11259   0.91696   0.37294   -0.14264   0.11259   0.91696   0.37294   -0.14264   95.48645
743   0.11266   0.91708   0.37275   -0.14258   0.11266   0.91708   0.37275   -0.14258   95.47119
744   0.11259   0.91687   0.37336   -0.14191   0.11259   0.91687   0.37336   -0.14191   95.50171
745   0.11257   0.91714   0.37254   -0.14185   0.11257   0.91714   0.37254   -0.14185   95.50171
746   0.11236   0.91714   0.37312   -0.14106   0.11236   0.91714   0.37312   -0.14106   95.42847
747   0.11241   0.91675   0.37349   -0.14222   0.11241   0.91675   0.37349   -0.14222   95.50171
748   0.11235   0.91726   0.37242   -0.14148   0.11235   0.91726   0.37242   -0.14148   95.51697
749   0.11251   0.91723   0.37297   -0.14087   0.11251   0.91723   0.37297   -0.14087   95.48950
750   0.11256   0.91678   0.37358   -0.14185   0.11256   0.91678   0.37358   -0.14185   95.44373
751   0.11253   0.91729   0.37248   -0.14197   0.11253   0.91729   0.37248   -0.14197   95.44983
752   0.11250   0.91729   0.37230   -0.14203   0.11250   0.91729   0.37230   -0.14203   95.50476
753   0.11266   0.91638   0.37465   -0.14194   0.11266   0.91638   0.37465   -0.14194   95.45593
754   0.11265   0.91696   0.37288   -0.14292   0.11265   0.91696   0.37288   -0.14292   95.45593
755   0.11259   0.91641   0.37425   -0.14243   0.11259   0.91641   0.37425   -0.14243   95.47729
756   0.11249   0.91729   0.37226   -0.14249   0.11249   0.91729   0.37226   -0.14249   95.54749
757   0.11273   0.91675   0.37361   -0.14203   0.11273   0.91675   0.37361   -0.14203   95.45898
758   0.11266   0.91708   0.37333   -0.14075   0.11266   0.91708   0.37333   -0.14075   95.45593
759   0.11249   0.91723   0.37211   -0.14264   0.11249   0.91723   0.37211   -0.14264   95.52307
760   0.11249   0.91668   0.37355   -0.14274   0.11249   0.91668   0.37355   -0.14274   95.53833
761   0.11247   0.91659   0.37397   -0.14194   0.11247   0.91659   0.37397   -0.14194   95.42236
762   0.11255   0.91653   0.37452   -0.14164   0.11255   0.91653   0.37452   -0.14164   95.41016
763   0.11242   0.91702   0.37288   -0.14243   0.11242   0.91702   0.37288   -0.14243   95.51086
764   0.11247   0.91696   0.37327   -0.14164   0.11247   0.91696   0.37327   -0.14164   95.56885
765   0.11272   0.91699   0.37345   -0.14096   0.11272   0.91699   0.37345   -0.14096   95.47424
766   0.11265   0.91675   0.37321   -0.14274   0.11265   0.91675   0.37321   -0.14274   95.44678
767   0.11231   0.91748   0.37175   -0.14212   0.11231   0.91748   0.37175   -0.14212   95.49866
768   0.11257   0.91671   0.37397   -0.14127   0.11257   0.91671   0.37397   -0.14127   95.56580
769   0.11275   0.91720   0.37309   -0.14078   0.11275   0.91720   0.37309   -0.14078   95.46814
770   0.11278   0.91702   0.37309   -0.14106   0.11278   0.91702   0.37309   -0.14106   95.47729
771   0.11252   0.91653   0.37437   -0.14136   0.11252   0.91653   0.37437   -0.14136   95.54749
772   0.11236   0.91675   0.37376   -0.14164   0.11236   0.91675   0.37376   -0.14164   95.55664
773   0.11249   0.91687   0.37352   -0.14136   0.11249   0.91687   0.37352   -0.14136   95.44067
774   0.11252   0.91739   0.37220   -0.14197   0.11252   0.91739   0.37220   -0.14197   95.43457
775   0.11247   0.91708   0.37269   -0.14249   0.11247   0.91708   0.37269   -0.14249   95.51392
776   0.11238   0.91671   0.37394   -0.14148   0.11238   0.91671   0.37394   -0.14148   95.51697
777   0.11250   0.91638   0.37419   -0.14240   0.11250   0.91638   0.37419   -0.14240   95.45593
778   0.11251   0.91687   0.37339   -0.14170   0.11251   0.91687   0.37339   -0.14170   95.47424
779   0.11254   0.91717   0.37272   -0.14188   0.11254   0.91717   0.37272   -0.14188   95.49866
780   0.11257   0.91696   0.37336   -0.14154   0.11257   0.91696   0.37336   -0.14154   95.50171
781   0.11278   0.91687   0.37309   -0.14261   0.11278   0.91687   0.37309   -0.14261   95.44373
782   0.11254   0.91690   0.37330   -0.14182   0.11254   0.91690   0.37330   -0.14182   95.45898
783   0.11234   0.91632   0.37443   -0.14258   0.11234   0.91632   0.37443   -0.14258   95.53223
784   0.11252   0.91681   0.37339   -0.14219   0.11252   0.91681   0.37339   -0.14219   95.48340
785   0.11265   0.91754   0.37150   -0.14231   0.11265   0.91754   0.37150   -0.14231   95.44678
786   0.11239   0.91662   0.37413   -0.14176   0.11239   0.91662   0.37413   -0.14176   95.47729
787   0.11224   0.91699   0.37284   -0.14258   0.11224   0.91699   0.37284   -0.14258   95.54443
788   0.11249   0.91650   0.37455   -0.14145   0.11249   0.91650   0.37455   -0.14145   95.48035
789   0.11254   0.91696   0.37428   -0.13950   0.11254   0.91696   0.37428   -0.13950   95.41931
790   0.11251   0.91668   0.37419   -0.14115   0.11251   0.91668   0.37419   -0.14115   95.46509
791   0.11242   0.91729   0.37288   -0.14066   0.11242   0.91729   0.37288   -0.14066   95.48645
792   0.11263   0.91610   0.37541   -0.14142   0.11263   0.91610   0.37541   -0.14142   95.45288
793   0.11259   0.91690   0.37324   -0.14194   0.11259   0.91690   0.37324   -0.14194   95.47729
794   0.11267   0.91653   0.37465   -0.14139   0.11267   0.91653   0.37465   -0.14139   95.49561
795   0.11262   0.91662   0.37461   -0.14069   0.11262   0.91662   0.37461   -0.14069   95.53528
796   0.11266   0.91678   0.37416   -0.14045   0.11266   0.91678   0.37416   -0.14045   95.45593
797   0.11257   0.91675   0.37373   -0.14161   0.11257   0.91675   0.37373   -0.14161   95.48340
798   0.11254   0.91711   0.37284   -0.14182   0.11254   0.91711   0.37284   -0.14182   95.50781
799   0.11246   0.91693   0.37376   -0.14081   0.11246   0.91693   0.37376   -0.14081   95.46509
800   0.11256   0.91671   0.37410   -0.14087   0.11256   0.91671   0.37410   -0.14087   95.49255
801   0.11250   0.91659   0.37413   -0.14197   0.11250   0.91659   0.37413   -0.14197   95.47424
802   0.11248   0.91687   0.37376   -0.14112   0.11248   0.91687   0.37376   -0.14112   95.51392
803   0.11251   0.91668   0.37391   -0.14121   0.11251   0.91668   0.37391   -0.14121   95.50781
804   0.11255   0.91678   0.37403   -0.14109   0.11255   0.91678   0.37403   -0.14109   95.44983
805   0.11253   0.91684   0.37364   -0.14161   0.11253   0.91684   0.37364   -0.14161   95.50781
806   0.11251   0.91662   0.37391   -0.14188   0.11251   0.91662   0.37391   -0.14188   95.50781
807   0.11260   0.91656   0.37425   -0.14139   0.11260   0.91656   0.37425   -0.14139   95.43762
808   0.11260   0.91671   0.37400   -0.14115   0.11260   0.91671   0.37400   -0.14115   95.46814
809   0.11254   0.91699   0.37306   -0.14197   0.11254   0.91699   0.37306   -0.14197   95.52307
810   0.11252   0.91659   0.37394   -0.14182   0.11252   0.91659   0.37394   -0.14182   95.50781
811   0.11257   0.91684   0.37407   -0.14045   0.11257   0.91684   0.37407   -0.14045   95.44373
812   0.11242   0.91696   0.37345   -0.14124   0.11242   0.91696   0.37345   -0.14124   95.47119
813   0.11242   0.91714   0.37284   -0.14151   0.11242   0.91714   0.37284   -0.14151   95.52612
814   0.11240   0.91681   0.37397   -0.14084   0.11240   0.91681   0.37397   -0.14084   95.53528
815   0.11249   0.91684   0.37367   -0.14148   0.11249   0.91684   0.37367   -0.14148   95.43152
816   0.11251   0.91681   0.37367   -0.14170   0.11251   0.91681   0.37367   -0.14170   95.48950
817   0.11246   0.91671   0.37367   -0.14246   0.11246   0.91671   0.37367   -0.14246   95.50476
818   0.11253   0.91656   0.37419   -0.14200   0.11253   0.91656   0.37419   -0.14200   95.51697
819   0.11259   0.91720   0.37300   -0.14081   0.11259   0.91720   0.37300   -0.14081   95.41931
820   0.11262   0.91708   0.37306   -0.14151   0.11262   0.91708   0.37306   -0.14151   95.46204
821   0.11252   0.91684   0.37367   -0.14173   0.11252   0.91684   0.37367   -0.14173   95.52307
822   0.11256   0.91696   0.37336   -0.14139   0.11256   0.91696   0.37336   -0.14139   95.50171
823   0.11262   0.91723   0.37312   -0.14075   0.11262   0.91723   0.37312   -0.14075   95.45288
824   0.11254   0.91705   0.37330   -0.14093   0.11254   0.91705   0.37330   -0.14093   95.45898
825   0.11232   0.91726   0.37321   -0.13990   0.11232   0.91726   0.37321   -0.13990   95.55664
826   0.11241   0.91696   0.37352   -0.14072   0.11241   0.91696   0.37352   -0.14072   95.48645
827   0.11249   0.91696   0.37379   -0.14008   0.11249   0.91696   0.37379   -0.14008   95.44983
828   0.11247   0.91705   0.37306   -0.14173   0.11247   0.91705   0.37306   -0.14173   95.48035
829   0.11242   0.91668   0.37394   -0.14151   0.11242   0.91668   0.37394   -0.14151   95.53528
830   0.11250   0.91656   0.37416   -0.14212   0.11250   0.91656   0.37416   -0.14212   95.48035
831   0.11266   0.91656   0.37480   -0.14029   0.11266   0.91656   0.37480   -0.14029   95.44678
832   0.11262   0.91653   0.37440   -0.14109   0.11262   0.91653   0.37440   -0.14109   95.52002
833   0.11248   0.91644   0.37474   -0.14115   0.11248   0.91644   0.37474   -0.14115   95.53833
834   0.11256   0.91690   0.37349   -0.14139   0.11256   0.91690   0.37349   -0.14139   95.46814
835   0.11260   0.91617   0.37513   -0.14176   0.11260   0.91617   0.37513   -0.14176   95.41931
836   0.11252   0.91665   0.37449   -0.14042   0.11252   0.91665   0.37449   -0.14042   95.49866
837   0.11242   0.91720   0.37330   -0.13987   0.11242   0.91720   0.37330   -0.13987   95.53528
838   0.11235   0.91699   0.37364   -0.14048   0.11235   0.91699   0.37364   -0.14048   95.49255
839   0.11249   0.91714   0.37327   -0.14035   0.11249   0.91714   0.37327   -0.14035   95.43152
840   0.11242   0.91665   0.37437   -0.14087   0.11242   0.91665   0.37437   -0.14087   95.51086
841   0.11242   0.91635   0.37495   -0.14124   0.11242   0.91635   0.37495   -0.14124   95.54443
842   0.11246   0.91665   0.37465   -0.14005   0.11246   0.91665   0.37465   -0.14005   95.48035
843   0.11251   0.91711   0.37315   -0.14093   0.11251   0.91711   0.37315   -0.14093   95.45898
844   0.11248   0.91650   0.37428   -0.14164   0.11248   0.91650   0.37428   -0.14164   95.50476
845   0.11250   0.91668   0.37385   -0.14173   0.11250   0.91668   0.37385   -0.14173   95.51392
846   0.11261   0.91662   0.37455   -0.14023   0.11261   0.91662   0.37455   -0.14023   95.49255
847   0.11277   0.91614   0.37565   -0.14084   0.11277   0.91614   0.37565   -0.14084   95.48340
848   0.11266   0.91671   0.37388   -0.14133   0.11266   0.91671   0.37388   -0.14133   95.51392
849   0.11250   0.91675   0.37455   -0.13965   0.11250   0.91675   0.37455   -0.13965   95.49866
850   0.11251   0.91678   0.37428   -0.14045   0.11251   0.91678   0.37428   -0.14045   95.45898
851   0.11242   0.91708   0.37352   -0.14072   0.11242   0.91708   0.37352   -0.14072   95.47119
852   0.11242   0.91635   0.37501   -0.14093   0.11242   0.91635   0.37501   -0.14093   95.51086
853   0.11240   0.91696   0.37370   -0.14060   0.11240   0.91696   0.37370   -0.14060   95.48645
854   0.11247   0.91665   0.37465   -0.14045   0.11247   0.91665   0.37465   -0.14045   95.45593
855   0.11245   0.91665   0.37468   -0.14045   0.11245   0.91665   0.37468   -0.14045   95.51086
856   0.11253   0.91632   0.37504   -0.14130   0.11253   0.91632   0.37504   -0.14130   95.50781
857   0.11264   0.91620   0.37565   -0.14026   0.11264   0.91620   0.37565   -0.14026   95.45593
858   0.11265   0.91583   0.37629   -0.14078   0.11265   0.91583   0.37629   -0.14078   95.45593
859   0.11257   0.91647   0.37410   -0.14216   0.11257   0.91647   0.37410   -0.14216   95.49255
860   0.11252   0.91610   0.37593   -0.14051   0.11252   0.91610   0.37593   -0.14051   95.50781
861   0.11263   0.91668   0.37468   -0.14017   0.11263   0.91668   0.37468   -0.14017   95.42236
862   0.11265   0.91610   0.37596   -0.13984   0.11265   0.91610   0.37596   -0.13984   95.48645
863   0.11245   0.91641   0.37504   -0.14032   0.11245   0.91641   0.37504   -0.14032   95.50476
864   0.11227   0.91702   0.37321   -0.14096   0.11227   0.91702   0.37321   -0.14096   95.50476
865   0.11219   0.91556   0.37730   -0.13977   0.11219   0.91556   0.37730   -0.13977   95.45288
866   0.11243   0.91610   0.37593   -0.13984   0.11243   0.91610   0.37593   -0.13984   95.48035
867   0.11265   0.91617   0.37547   -0.14093   0.11265   0.91617   0.37547   -0.14093   95.52917
868   0.11258   0.91546   0.37767   -0.13947   0.11258   0.91546   0.37767   -0.13947   95.46814
869   0.11249   0.91604   0.37559   -0.14170   0.11249   0.91604   0.37559   -0.14170   95.43152
870   0.11260   0.91641   0.37501   -0.14072   0.11260   0.91641   0.37501   -0.14072   95.47729
871   0.11249   0.91623   0.37571   -0.14023   0.11249   0.91623   0.37571   -0.14023   95.52917
872   0.11270   0.91607   0.37632   -0.13938   0.11270   0.91607   0.37632   -0.13938   95.45593
873   0.11262   0.91659   0.37501   -0.13971   0.11262   0.91659   0.37501   -0.13971   95.47119
874   0.11266   0.91623   0.37602   -0.13962   0.11266   0.91623   0.37602   -0.13962   95.44067
875   0.11247   0.91623   0.37577   -0.14017   0.11247   0.91623   0.37577   -0.14017   95.52002
876   0.11254   0.91647   0.37519   -0.13984   0.11254   0.91647   0.37519   -0.13984   95.44983
877   0.11241   0.91620   0.37626   -0.13907   0.11241   0.91620   0.37626   -0.13907   95.42847
878   0.11245   0.91614   0.37571   -0.14008   0.11245   0.91614   0.37571   -0.14008   95.48035
879   0.11233   0.91598   0.37596   -0.14063   0.11233   0.91598   0.37596   -0.14063   95.55664
880   0.11258   0.91586   0.37660   -0.13984   0.11258   0.91586   0.37660   -0.13984   95.48340
881   0.11267   0.91626   0.37577   -0.13968   0.11267   0.91626   0.37577   -0.13968   95.42236
882   0.11265   0.91610   0.37553   -0.14136   0.11265   0.91610   0.37553   -0.14136   95.47119
883   0.11251   0.91604   0.37596   -0.14032   0.11251   0.91604   0.37596   -0.14032   95.51392
884   0.11258   0.91601   0.37605   -0.13990   0.11258   0.91601   0.37605   -0.13990   95.46814
885   0.11274   0.91586   0.37617   -0.14069   0.11274   0.91586   0.37617   -0.14069   95.40100
886   0.11264   0.91559   0.37684   -0.14121   0.11264   0.91559   0.37684   -0.14121   95.48645
887   0.11261   0.91617   0.37553   -0.14039   0.11261   0.91617   0.37553   -0.14039   95.52612
888   0.11256   0.91586   0.37657   -0.13984   0.11256   0.91586   0.37657   -0.13984   95.43457
889   0.11260   0.91644   0.37529   -0.13941   0.11260   0.91644   0.37529   -0.13941   95.41931
890   0.11242   0.91641   0.37556   -0.13941   0.11242   0.91641   0.37556   -0.13941   95.49561
891   0.11242   0.91580   0.37669   -0.14008   0.11242   0.91580   0.37669   -0.14008   95.52612
892   0.11249   0.91583   0.37632   -0.14100   0.11249   0.91583   0.37632   -0.14100   95.44983
893   0.11253   0.91580   0.37678   -0.13984   0.11253   0.91580   0.37678   -0.13984   95.43457
894   0.11258   0.91543   0.37721   -0.14090   0.11258   0.91543   0.37721   -0.14090   95.49255
895   0.11247   0.91623   0.37535   -0.14127   0.11247   0.91623   0.37535   -0.14127   95.52002
896   0.11260   0.91571   0.37681   -0.14039   0.11260   0.91571   0.37681   -0.14039   95.41931
897   0.11263   0.91610   0.37584   -0.14039   0.11263   0.91610   0.37584   -0.14039   95.42236
898   0.11258   0.91635   0.37529   -0.14069   0.11258   0.91635   0.37529   -0.14069   95.49255
899   0.11253   0.91617   0.37596   -0.13974   0.11253   0.91617   0.37596   -0.13974   95.51697
900   0.11263   0.91650   0.37483   -0.14048   0.11263   0.91650   0.37483   -0.14048   95.42847
901   0.11258   0.91577   0.37651   -0.14084   0.11258   0.91577   0.37651   -0.14084   95.45288
902   0.11247   0.91592   0.37605   -0.14084   0.11247   0.91592   0.37605   -0.14084   95.50476
903   0.11242   0.91598   0.37623   -0.14023   0.11242   0.91598   0.37623   -0.14023   95.46204
904   0.11252   0.91571   0.37696   -0.13981   0.11252   0.91571   0.37696   -0.13981   95.43457
905   0.11247   0.91571   0.37632   -0.14142   0.11247   0.91571   0.37632   -0.14142   95.44067
906   0.11245   0.91610   0.37580   -0.14075   0.11245   0.91610   0.37580   -0.14075   95.50476
907   0.11251   0.91559   0.37718   -0.14042   0.11251   0.91559   0.37718   -0.14042   95.45898
908   0.11255   0.91574   0.37693   -0.13981   0.11255   0.91574   0.37693   -0.13981   95.41931
909   0.11250   0.91537   0.37800   -0.13947   0.11250   0.91537   0.37800   -0.13947   95.48950
910   0.11248   0.91583   0.37651   -0.14054   0.11248   0.91583   0.37651   -0.14054   95.48950
911   0.11257   0.91610   0.37562   -0.14075   0.11257   0.91610   0.37562   -0.14075   95.45898
912   0.11255   0.91610   0.37565   -0.14051   0.11255   0.91610   0.37565   -0.14051   95.47424
913   0.11257   0.91586   0.37642   -0.14026   0.11257   0.91586   0.37642   -0.14026   95.45898
914   0.11249   0.91589   0.37645   -0.14014   0.11249   0.91589   0.37645   -0.14014   95.48950
915   0.11250   0.91614   0.37571   -0.14017   0.11250   0.91614   0.37571   -0.14017   95.44067
916   0.11250   0.91540   0.37779   -0.13974   0.11250   0.91540   0.37779   -0.13974   95.45593
917   0.11248   0.91607   0.37632   -0.13919   0.11248   0.91607   0.37632   -0.13919   95.48950
918   0.11243   0.91559   0.37709   -0.14087   0.11243   0.91559   0.37709   -0.14087   95.49561
919   0.11248   0.91592   0.37651   -0.14014   0.11248   0.91592   0.37651   -0.14014   95.45593
920   0.11248   0.91559   0.37681   -0.14124   0.11248   0.91559   0.37681   -0.14124   95.45593
921   0.11251   0.91626   0.37559   -0.14042   0.11251   0.91626   0.37559   -0.14042   95.49866
922   0.11253   0.91540   0.37761   -0.13993   0.11253   0.91540   0.37761   -0.13993   95.46814
923   0.11263   0.91577   0.37648   -0.14039   0.11263   0.91577   0.37648   -0.14039   95.42236
924   0.11255   0.91522   0.37800   -0.14075   0.11255   0.91522   0.37800   -0.14075   95.44983
925   0.11249   0.91531   0.37736   -0.14127   0.11249   0.91531   0.37736   -0.14127   95.51392
926   0.11257   0.91586   0.37623   -0.14075   0.11257   0.91586   0.37623   -0.14075   95.46814
927   0.11255   0.91580   0.37660   -0.13987   0.11255   0.91580   0.37660   -0.13987   95.41016
928   0.11246   0.91537   0.37730   -0.14133   0.11246   0.91537   0.37730   -0.14133   95.48950
929   0.11243   0.91498   0.37846   -0.14075   0.11243   0.91498   0.37846   -0.14075   95.50476
930   0.11249   0.91607   0.37614   -0.13996   0.11249   0.91607   0.37614   -0.13996   95.42542
931   0.11252   0.91556   0.37712   -0.14075   0.11252   0.91556   0.37712   -0.14075   95.41626
932   0.11250   0.91531   0.37709   -0.14194   0.11250   0.91531   0.37709   -0.14194   95.46509
933   0.11246   0.91507   0.37776   -0.14161   0.11246   0.91507   0.37776   -0.14161   95.51392
934   0.11258   0.91571   0.37706   -0.14008   0.11258   0.91571   0.37706   -0.14008   95.41931
935   0.11257   0.91522   0.37831   -0.13959   0.11257   0.91522   0.37831   -0.13959   95.40405
936   0.11258   0.91571   0.37648   -0.14096   0.11258   0.91571   0.37648   -0.14096   95.47729
937   0.11249   0.91507   0.37846   -0.13971   0.11249   0.91507   0.37846   -0.13971   95.52917
938   0.11261   0.91537   0.37828   -0.13904   0.11261   0.91537   0.37828   -0.13904   95.42847
939   0.11265   0.91543   0.37770   -0.13971   0.11265   0.91543   0.37770   -0.13971   95.39795
940   0.11252   0.91546   0.37742   -0.14014   0.11252   0.91546   0.37742   -0.14014   95.43457
941   0.11242   0.91516   0.37800   -0.14066   0.11242   0.91516   0.37800   -0.14066   95.49561
942   0.11239   0.91531   0.37797   -0.13962   0.11239   0.91531   0.37797   -0.13962   95.44373
943   0.11254   0.91543   0.37745   -0.14014   0.11254   0.91543   0.37745   -0.14014   95.38574
944   0.11240   0.91528   0.37761   -0.14057   0.11240   0.91528   0.37761   -0.14057   95.52612
945   0.11242   0.91522   0.37819   -0.13987   0.11242   0.91522   0.37819   -0.13987   95.47729
946   0.11243   0.91482   0.37925   -0.13965   0.11243   0.91482   0.37925   -0.13965   95.42236
947   0.11239   0.91549   0.37764   -0.13987   0.11239   0.91549   0.37764   -0.13987   95.41931
948   0.11261   0.91485   0.37892   -0.14069   0.11261   0.91485   0.37892   -0.14069   95.49255
949   0.11266   0.91522   0.37794   -0.14035   0.11266   0.91522   0.37794   -0.14035   95.47119
950   0.11267   0.91510   0.37843   -0.13941   0.11267   0.91510   0.37843   -0.13941   95.41626
951   0.11260   0.91522   0.37788   -0.14026   0.11260   0.91522   0.37788   -0.14026   95.41931
952   0.11250   0.91491   0.37870   -0.14029   0.11250   0.91491   0.37870   -0.14029   95.48950
953   0.11259   0.91498   0.37867   -0.14014   0.11259   0.91498   0.37867   -0.14014   95.46814
954   0.11258   0.91498   0.37837   -0.14069   0.11258   0.91498   0.37837   -0.14069   95.40405
955   0.11248   0.91494   0.37855   -0.14081   0.11248   0.91494   0.37855   -0.14081   95.40710
956   0.11245   0.91522   0.37803   -0.14017   0.11245   0.91522   0.37803   -0.14017   95.49561
957   0.11244   0.91473   0.37898   -0.14115   0.11244   0.91473   0.37898   -0.14115   95.48645
958   0.11255   0.91534   0.37794   -0.13987   0.11255   0.91534   0.37794   -0.13987   95.44373
959   0.11253   0.91510   0.37819   -0.14103   0.11253   0.91510   0.37819   -0.14103   95.43457
960   0.11250   0.91556   0.37700   -0.14039   0.11250   0.91556   0.37700   -0.14039   95.48950
961   0.11252   0.91510   0.37828   -0.14057   0.11252   0.91510   0.37828   -0.14057   95.44983
962   0.11263   0.91510   0.37809   -0.14066   0.11263   0.91510   0.37809   -0.14066   95.40405
963   0.11256   0.91491   0.37880   -0.13999   0.11256   0.91491   0.37880   -0.13999   95.45288
964   0.11261   0.91504   0.37855   -0.14011   0.11261   0.91504   0.37855   -0.14011   95.48645
965   0.11274   0.91507   0.37861   -0.13941   0.11274   0.91507   0.37861   -0.13941   95.44983
966   0.11260   0.91482   0.37907   -0.13996   0.11260   0.91482   0.37907   -0.13996   95.43762
967   0.11227   0.91552   0.37764   -0.13935   0.11227   0.91552   0.37764   -0.13935   95.45593
968   0.11237   0.91522   0.37800   -0.14057   0.11237   0.91522   0.37800   -0.14057   95.46814
969   0.11263   0.91519   0.37837   -0.13950   0.11263   0.91519   0.37837   -0.13950   95.42847
970   0.11261   0.91501   0.37864   -0.14020   0.11261   0.91501   0.37864   -0.14020   95.44678
971   0.11252   0.91534   0.37751   -0.14072   0.11252   0.91534   0.37751   -0.14072   95.46509
972   0.11242   0.91519   0.37788   -0.14072   0.11242   0.91519   0.37788   -0.14072   95.47729
973   0.11257   0.91513   0.37843   -0.13999   0.11257   0.91513   0.37843   -0.13999   95.43457
974   0.11263   0.91491   0.37870   -0.14035   0.11263   0.91491   0.37870   -0.14035   95.40405
975   0.11257   0.91522   0.37767   -0.14130   0.11257   0.91522   0.37767   -0.14130   95.45898
976   0.11255   0.91498   0.37834   -0.14106   0.11255   0.91498   0.37834   -0.14106   95.47424
977   0.11262   0.91473   0.37925   -0.14017   0.11262   0.91473   0.37925   -0.14017   95.40405
978   0.11254   0.91491   0.37873   -0.14048   0.11254   0.91491   0.37873   -0.14048   95.47424
979   0.11252   0.91507   0.37803   -0.14078   0.11252   0.91507   0.37803   -0.14078   95.48950
980   0.11253   0.91522   0.37791   -0.14096   0.11253   0.91522   0.37791   -0.14096   95.45898
981   0.11266   0.91498   0.37870   -0.14057   0.11266   0.91498   0.37870   -0.14057   95.38269
982   0.11244   0.91498   0.37825   -0.14081   0.11244   0.91498   0.37825   -0.14081   95.45593
983   0.11221   0.91501   0.37846   -0.14042   0.11221   0.91501   0.37846   -0.14042   95.48645
984   0.11251   0.91470   0.37898   -0.14124   0.11251   0.91470   0.37898   -0.14124   95.41016
985   0.11266   0.91537   0.37724   -0.14139   0.11266   0.91537   0.37724   -0.14139   95.39795
986   0.11250   0.91494   0.37849   -0.14103   0.11250   0.91494   0.37849   -0.14103   95.44983
987   0.11239   0.91513   0.37812   -0.14087   0.11239   0.91513   0.37812   -0.14087   95.49255
988   0.11255   0.91504   0.37840   -0.14060   0.11255   0.91504   0.37840   -0.14060   95.41931
989   0.11262   0.91494   0.37870   -0.14023   0.11262   0.91494   0.37870   -0.14023   95.42236
990   0.11254   0.91531   0.37736   -0.14115   0.11254   0.91531   0.37736   -0.14115   95.46814
991   0.11247   0.91519   0.37785   -0.14100   0.11247   0.91519   0.37785   -0.14100   95.50476
992   0.11252   0.91494   0.37901   -0.13956   0.11252   0.91494   0.37901   -0.13956   95.42542
993   0.11247   0.91522   0.37797   -0.14014   0.11247   0.91522   0.37797   -0.14014   95.39795
994   0.11237   0.91494   0.37815   -0.14124   0.11237   0.91494   0.37815   -0.14124   95.46814
995   0.11240   0.91525   0.37730   -0.14176   0.11240   0.91525   0.37730   -0.14176   95.50171
996   0.11245   0.91464   0.37944   -0.13990   0.11245   0.91464   0.37944   -0.13990   95.43152
997   0.11251   0.91559   0.37739   -0.13971   0.11251   0.91559   0.37739   -0.13971   95.40100
998   0.11244   0.91491   0.37849   -0.14057   0.11244   0.91491   0.37849   -0.14057   95.48035
999   0.11253   0.91470   0.37931   -0.14042   0.11253   0.91470   0.37931   -0.14042   95.53223
1000   0.11256   0.91510   0.37867   -0.13919   0.11256   0.91510   0.37867   -0.13919   95.39490
1001   0.11256   0.91522   0.37812   -0.14005   0.11256   0.91522   0.37812   -0.14005   95.40405
1002   0.11250   0.91507   0.37803   -0.14078   0.11250   0.91507   0.37803   -0.14078   95.50476
1003   0.11261   0.91452   0.37983   -0.13984   0.11261   0.91452   0.37983   -0.13984   95.50171
1004   0.11257   0.91494   0.37892   -0.13974   0.11257   0.91494   0.37892   -0.13974   95.40405
1005   0.11254   0.91549   0.37797   -0.13935   0.11254   0.91549   0.37797   -0.13935   95.39490
1006   0.11236   0.91482   0.37916   -0.14011   0.11236   0.91482   0.37916   -0.14011   95.45898
1007   0.11232   0.91534   0.37767   -0.13996   0.11232   0.91534   0.37767   -0.13996   95.49866
1008   0.11255   0.91464   0.37956   -0.14002   0.11255   0.91464   0.37956   -0.14002   95.40100
1009   0.11248   0.91522   0.37794   -0.14066   0.11248   0.91522   0.37794   -0.14066   95.40710
1010   0.11241   0.91543   0.37687   -0.14194   0.11241   0.91543   0.37687   -0.14194   95.50171
1011   0.11242   0.91516   0.37791   -0.14109   0.11242   0.91516   0.37791   -0.14109   95.45288
1012   0.11255   0.91519   0.37770   -0.14124   0.11255   0.91519   0.37770   -0.14124   95.38574
1013   0.11252   0.91522   0.37767   -0.14121   0.11252   0.91522   0.37767   -0.14121   95.40100
1014   0.11253   0.91470   0.37913   -0.14054   0.11253   0.91470   0.37913   -0.14054   95.52307
1015   0.11258   0.91476   0.37941   -0.13968   0.11258   0.91476   0.37941   -0.13968   95.45898
1016   0.11268   0.91476   0.37935   -0.14011   0.11268   0.91476   0.37935   -0.14011   95.39185
1017   0.11253   0.91504   0.37785   -0.14148   0.11253   0.91504   0.37785   -0.14148   95.43457
1018   0.11240   0.91528   0.37788   -0.14017   0.11240   0.91528   0.37788   -0.14017   95.51086
1019   0.11237   0.91556   0.37712   -0.14026   0.11237   0.91556   0.37712   -0.14026   95.48340
1020   0.11241   0.91543   0.37724   -0.14084   0.11241   0.91543   0.37724   -0.14084   95.41931
1021   0.11252   0.91488   0.37883   -0.14069   0.11252   0.91488   0.37883   -0.14069   95.41016
1022   0.11248   0.91504   0.37849   -0.14005   0.11248   0.91504   0.37849   -0.14005   95.48950
1023   0.11246   0.91531   0.37773   -0.14063   0.11246   0.91531   0.37773   -0.14063   95.40710
1024   0.11261   0.91498   0.37843   -0.14072   0.11261   0.91498   0.37843   -0.14072   95.45288
1025   0.11257   0.91507   0.37825   -0.14066   0.11257   0.91507   0.37825   -0.14066   95.49255
1026   0.11258   0.91479   0.37867   -0.14093   0.11258   0.91479   0.37867   -0.14093   95.49255
1027   0.11258   0.91534   0.37803   -0.13944   0.11258   0.91534   0.37803   -0.13944   95.44373
1028   0.11256   0.91534   0.37751   -0.14063   0.11256   0.91534   0.37751   -0.14063   95.43457
1029   0.11252   0.91510   0.37809   -0.14096   0.11252   0.91510   0.37809   -0.14096   95.48340
1030   0.11250   0.91528   0.37782   -0.14048   0.11250   0.91528   0.37782   -0.14048   95.45593
1031   0.11250   0.91537   0.37770   -0.14042   0.11250   0.91537   0.37770   -0.14042   95.42542
1032   0.11233   0.91516   0.37779   -0.14130   0.11233   0.91516   0.37779   -0.14130   95.45898
1033   0.11238   0.91516   0.37815   -0.14042   0.11238   0.91516   0.37815   -0.14042   95.45898
1034   0.11240   0.91513   0.37800   -0.14106   0.11240   0.91513   0.37800   -0.14106   95.45288
1035   0.11245   0.91559   0.37684   -0.14096   0.11245   0.91559   0.37684   -0.14096   95.41321
1036   0.11244   0.91510   0.37831   -0.14063   0.11244   0.91510   0.37831   -0.14063   95.43762
1037   0.11251   0.91504   0.37837   -0.14106   0.11251   0.91504   0.37837   -0.14106   95.48950
1038   0.11259   0.91498   0.37904   -0.13968   0.11259   0.91498   0.37904   -0.13968   95.44373
1039   0.11262   0.91504   0.37828   -0.14096   0.11262   0.91504   0.37828   -0.14096   95.40405
1040   0.11263   0.91494   0.37822   -0.14158   0.11263   0.91494   0.37822   -0.14158   95.48645
1041   0.11252   0.91534   0.37776   -0.14057   0.11252   0.91534   0.37776   -0.14057   95.45898
1042   0.11261   0.91556   0.37776   -0.13910   0.11261   0.91556   0.37776   -0.13910   95.42847
1043   0.11265   0.91455   0.37947   -0.14084   0.11265   0.91455   0.37947   -0.14084   95.43762
1044   0.11255   0.91485   0.37870   -0.14078   0.11255   0.91485   0.37870   -0.14078   95.47424
1045   0.11242   0.91482   0.37867   -0.14087   0.11242   0.91482   0.37867   -0.14087   95.48645
1046   0.11256   0.91574   0.37687   -0.13996   0.11256   0.91574   0.37687   -0.13996   95.43457
1047   0.11260   0.91552   0.37736   -0.14014   0.11260   0.91552   0.37736   -0.14014   95.44373
1048   0.11252   0.91540   0.37703   -0.14145   0.11252   0.91540   0.37703   -0.14145   95.48950
1049   0.11242   0.91565   0.37693   -0.14075   0.11242   0.91565   0.37693   -0.14075   95.49561
1050   0.11250   0.91516   0.37852   -0.13968   0.11250   0.91516   0.37852   -0.13968   95.42542
1051   0.11256   0.91552   0.37724   -0.14051   0.11256   0.91552   0.37724   -0.14051   95.42847
1052   0.11247   0.91568   0.37681   -0.14081   0.11247   0.91568   0.37681   -0.14081   95.48950
1053   0.11250   0.91549   0.37724   -0.14063   0.11250   0.91549   0.37724   -0.14063   95.45593
1054   0.11264   0.91491   0.37794   -0.14234   0.11264   0.91491   0.37794   -0.14234   95.39795
1055   0.11267   0.91534   0.37754   -0.14054   0.11267   0.91534   0.37754   -0.14054   95.44067
1056   0.11244   0.91552   0.37693   -0.14084   0.11244   0.91552   0.37693   -0.14084   95.50476
1057   0.11244   0.91571   0.37693   -0.13999   0.11244   0.91571   0.37693   -0.13999   95.48035
1058   0.11243   0.91531   0.37770   -0.14066   0.11243   0.91531   0.37770   -0.14066   95.38269
1059   0.11245   0.91540   0.37721   -0.14100   0.11245   0.91540   0.37721   -0.14100   95.44678
1060   0.11234   0.91513   0.37782   -0.14100   0.11234   0.91513   0.37782   -0.14100   95.53223
1061   0.11241   0.91525   0.37773   -0.14057   0.11241   0.91525   0.37773   -0.14057   95.49561
1062   0.11252   0.91525   0.37782   -0.14063   0.11252   0.91525   0.37782   -0.14063   95.37659
1063   0.11251   0.91546   0.37727   -0.14063   0.11251   0.91546   0.37727   -0.14063   95.44067
1064   0.11232   0.91522   0.37754   -0.14133   0.11232   0.91522   0.37754   -0.14133   95.52307
1065   0.11219   0.91510   0.37846   -0.13981   0.11219   0.91510   0.37846   -0.13981   95.47729
1066   0.11261   0.91534   0.37761   -0.14072   0.11261   0.91534   0.37761   -0.14072   95.39795
1067   0.11266   0.91604   0.37602   -0.14069   0.11266   0.91604   0.37602   -0.14069   95.44678
1068   0.11252   0.91543   0.37718   -0.14121   0.11252   0.91543   0.37718   -0.14121   95.51392
1069   0.11240   0.91531   0.37764   -0.14063   0.11240   0.91531   0.37764   -0.14063   95.46204
1070   0.11243   0.91610   0.37584   -0.14081   0.11243   0.91610   0.37584   -0.14081   95.43152
1071   0.11236   0.91534   0.37767   -0.14060   0.11236   0.91534   0.37767   -0.14060   95.42847
1072   0.11239   0.91562   0.37693   -0.14051   0.11239   0.91562   0.37693   -0.14051   95.48645
1073   0.11241   0.91559   0.37718   -0.13999   0.11241   0.91559   0.37718   -0.13999   95.45288
1074   0.11242   0.91540   0.37721   -0.14124   0.11242   0.91540   0.37721   -0.14124   95.42236
1075   0.11241   0.91540   0.37706   -0.14136   0.11241   0.91540   0.37706   -0.14136   95.49561
1076   0.11250   0.91556   0.37690   -0.14069   0.11250   0.91556   0.37690   -0.14069   95.46509
1077   0.11252   0.91565   0.37693   -0.14014   0.11252   0.91565   0.37693   -0.14014   95.44067
1078   0.11249   0.91528   0.37764   -0.14093   0.11249   0.91528   0.37764   -0.14093   95.45593
1079   0.11250   0.91510   0.37773   -0.14151   0.11250   0.91510   0.37773   -0.14151   95.46509
1080   0.11247   0.91516   0.37828   -0.14011   0.11247   0.91516   0.37828   -0.14011   95.48035
1081   0.11268   0.91580   0.37642   -0.14081   0.11268   0.91580   0.37642   -0.14081   95.43152
1082   0.11259   0.91510   0.37800   -0.14069   0.11259   0.91510   0.37800   -0.14069   95.45288
1083   0.11244   0.91537   0.37727   -0.14118   0.11244   0.91537   0.37727   -0.14118   95.48035
1084   0.11239   0.91577   0.37648   -0.14060   0.11239   0.91577   0.37648   -0.14060   95.42847
1085   0.11249   0.91565   0.37657   -0.14127   0.11249   0.91565   0.37657   -0.14127   95.44983
1086   0.11246   0.91516   0.37788   -0.14078   0.11246   0.91516   0.37788   -0.14078   95.45593
1087   0.11251   0.91562   0.37700   -0.14066   0.11251   0.91562   0.37700   -0.14066   95.47424
1088   0.11249   0.91522   0.37773   -0.14139   0.11249   0.91522   0.37773   -0.14139   95.45593
1089   0.11251   0.91543   0.37754   -0.14035   0.11251   0.91543   0.37754   -0.14035   95.41626
1090   0.11252   0.91562   0.37690   -0.14093   0.11252   0.91562   0.37690   -0.14093   95.48340
1091   0.11252   0.91556   0.37715   -0.14066   0.11252   0.91556   0.37715   -0.14066   95.49866
1092   0.11256   0.91549   0.37727   -0.14057   0.11256   0.91549   0.37727   -0.14057   95.42847
1093   0.11256   0.91571   0.37672   -0.14081   0.11256   0.91571   0.37672   -0.14081   95.42847
1094   0.11253   0.91546   0.37709   -0.14161   0.11253   0.91546   0.37709   -0.14161   95.48340
1095   0.11247   0.91504   0.37858   -0.14029   0.11247   0.91504   0.37858   -0.14029   95.44678
1096   0.11253   0.91543   0.37727   -0.14072   0.11253   0.91543   0.37727   -0.14072   95.39490
1097   0.11238   0.91549   0.37764   -0.13999   0.11238   0.91549   0.37764   -0.13999   95.42847
1098   0.11239   0.91519   0.37791   -0.14109   0.11239   0.91519   0.37791   -0.14109   95.50171
1099   0.11239   0.91543   0.37727   -0.14133   0.11239   0.91543   0.37727   -0.14133   95.44373
1100   0.11251   0.91546   0.37709   -0.14130   0.11251   0.91546   0.37709   -0.14130   95.41016
1101   0.11246   0.91540   0.37696   -0.14194   0.11246   0.91540   0.37696   -0.14194   95.43152
1102   0.11242   0.91528   0.37748   -0.14142   0.11242   0.91528   0.37748   -0.14142   95.52002
1103   0.11250   0.91552   0.37724   -0.14063   0.11250   0.91552   0.37724   -0.14063   95.48035
1104   0.11258   0.91528   0.37773   -0.14063   0.11258   0.91528   0.37773   -0.14063   95.39490
1105   0.11252   0.91565   0.37669   -0.14121   0.11252   0.91565   0.37669   -0.14121   95.44983
1106   0.11246   0.91571   0.37657   -0.14100   0.11246   0.91571   0.37657   -0.14100   95.53833
1107   0.11255   0.91534   0.37733   -0.14103   0.11255   0.91534   0.37733   -0.14103   95.46814
1108   0.11257   0.91607   0.37565   -0.14124   0.11257   0.91607   0.37565   -0.14124   95.39490
1109   0.11248   0.91552   0.37739   -0.13996   0.11248   0.91552   0.37739   -0.13996   95.46509
1110   0.11232   0.91583   0.37611   -0.14167   0.11232   0.91583   0.37611   -0.14167   95.49866
1111   0.11243   0.91559   0.37687   -0.14081   0.11243   0.91559   0.37687   -0.14081   95.46204
1112   0.11246   0.91595   0.37617   -0.14072   0.11246   0.91595   0.37617   -0.14072   95.42236
1113   0.11247   0.91556   0.37721   -0.14054   0.11247   0.91556   0.37721   -0.14054   95.46509
1114   0.11252   0.91568   0.37712   -0.13999   0.11252   0.91568   0.37712   -0.13999   95.53223
1115   0.11252   0.91598   0.37590   -0.14063   0.11252   0.91598   0.37590   -0.14063   95.44067
1116   0.11257   0.91595   0.37611   -0.14066   0.11257   0.91595   0.37611   -0.14066   95.39490
1117   0.11254   0.91577   0.37632   -0.14109   0.11254   0.91577   0.37632   -0.14109   95.49255
1118   0.11248   0.91549   0.37736   -0.14057   0.11248   0.91549   0.37736   -0.14057   95.50476
1119   0.11262   0.91592   0.37593   -0.14154   0.11262   0.91592   0.37593   -0.14154   95.43762
1120   0.11262   0.91641   0.37477   -0.14130   0.11262   0.91641   0.37477   -0.14130   95.42236
1121   0.11260   0.91549   0.37672   -0.14237   0.11260   0.91549   0.37672   -0.14237   95.46204
1122   0.11251   0.91528   0.37742   -0.14136   0.11251   0.91528   0.37742   -0.14136   95.53223
1123   0.11242   0.91617   0.37587   -0.14005   0.11242   0.91617   0.37587   -0.14005   95.45288
1124   0.11252   0.91607   0.37562   -0.14100   0.11252   0.91607   0.37562   -0.14100   95.42542
1125   0.11243   0.91586   0.37556   -0.14237   0.11243   0.91586   0.37556   -0.14237   95.48035
1126   0.11242   0.91595   0.37602   -0.14096   0.11242   0.91595   0.37602   -0.14096   95.51086
1127   0.11252   0.91583   0.37675   -0.13999   0.11252   0.91583   0.37675   -0.13999   95.41626
1128   0.11262   0.91617   0.37574   -0.14014   0.11262   0.91617   0.37574   -0.14014   95.40405
1129   0.11252   0.91586   0.37596   -0.14154   0.11252   0.91586   0.37596   -0.14154   95.46509
1130   0.11252   0.91638   0.37483   -0.14115   0.11252   0.91638   0.37483   -0.14115   95.48950
1131   0.11259   0.91604   0.37577   -0.14069   0.11259   0.91604   0.37577   -0.14069   95.44373
1132   0.11257   0.91556   0.37663   -0.14188   0.11257   0.91556   0.37663   -0.14188   95.44373
1133   0.11253   0.91586   0.37605   -0.14121   0.11253   0.91586   0.37605   -0.14121   95.46814
1134   0.11249   0.91589   0.37574   -0.14161   0.11249   0.91589   0.37574   -0.14161   95.48950
1135   0.11246   0.91586   0.37626   -0.14078   0.11246   0.91586   0.37626   -0.14078   95.45593
1136   0.11249   0.91559   0.37700   -0.14109   0.11249   0.91559   0.37700   -0.14109   95.44067
1137   0.11253   0.91534   0.37751   -0.14057   0.11253   0.91534   0.37751   -0.14057   95.49255
1138   0.11245   0.91617   0.37562   -0.14054   0.11245   0.91617   0.37562   -0.14054   95.49561
1139   0.11247   0.91610   0.37562   -0.14106   0.11247   0.91610   0.37562   -0.14106   95.46509
1140   0.11249   0.91598   0.37562   -0.14216   0.11249   0.91598   0.37562   -0.14216   95.49866
1141   0.11250   0.91598   0.37559   -0.14170   0.11250   0.91598   0.37559   -0.14170   95.51392
1142   0.11255   0.91638   0.37495   -0.14124   0.11255   0.91638   0.37495   -0.14124   95.44983
1143   0.11256   0.91592   0.37574   -0.14176   0.11256   0.91592   0.37574   -0.14176   95.45898
1144   0.11252   0.91601   0.37510   -0.14252   0.11252   0.91601   0.37510   -0.14252   95.48950
1145   0.11251   0.91586   0.37562   -0.14264   0.11251   0.91586   0.37562   -0.14264   95.48950
1146   0.11238   0.91592   0.37577   -0.14124   0.11238   0.91592   0.37577   -0.14124   95.41931
1147   0.11242   0.91565   0.37629   -0.14194   0.11242   0.91565   0.37629   -0.14194   95.47119
1148   0.11239   0.91583   0.37568   -0.14258   0.11239   0.91583   0.37568   -0.14258   95.47729
1149   0.11244   0.91665   0.37376   -0.14222   0.11244   0.91665   0.37376   -0.14222   95.48035
1150   0.11255   0.91589   0.37602   -0.14142   0.11255   0.91589   0.37602   -0.14142   95.41016
1151   0.11240   0.91626   0.37507   -0.14158   0.11240   0.91626   0.37507   -0.14158   95.44373
1152   0.11240   0.91614   0.37529   -0.14118   0.11240   0.91614   0.37529   -0.14118   95.52612
1153   0.11263   0.91559   0.37663   -0.14170   0.11263   0.91559   0.37663   -0.14170   95.43762
1154   0.11262   0.91604   0.37590   -0.14103   0.11262   0.91604   0.37590   -0.14103   95.42236
1155   0.11252   0.91610   0.37495   -0.14255   0.11252   0.91610   0.37495   -0.14255   95.49866
1156   0.11241   0.91620   0.37529   -0.14139   0.11241   0.91620   0.37529   -0.14139   95.54443
1157   0.11254   0.91592   0.37590   -0.14127   0.11254   0.91592   0.37590   -0.14127   95.47424
1158   0.11264   0.91617   0.37501   -0.14219   0.11264   0.91617   0.37501   -0.14219   95.43762
1159   0.11251   0.91571   0.37620   -0.14191   0.11251   0.91571   0.37620   -0.14191   95.47424
1160   0.11241   0.91586   0.37629   -0.14072   0.11241   0.91586   0.37629   -0.14072   95.52002
1161   0.11248   0.91620   0.37516   -0.14154   0.11248   0.91620   0.37516   -0.14154   95.44678
1162   0.11245   0.91601   0.37593   -0.14100   0.11245   0.91601   0.37593   -0.14100   95.40710
1163   0.11242   0.91626   0.37495   -0.14203   0.11242   0.91626   0.37495   -0.14203   95.51086
1164   0.11245   0.91595   0.37532   -0.14246   0.11245   0.91595   0.37532   -0.14246   95.49561
1165   0.11272   0.91604   0.37577   -0.14112   0.11272   0.91604   0.37577   -0.14112   95.43457
1166   0.11257   0.91617   0.37523   -0.14170   0.11257   0.91617   0.37523   -0.14170   95.43457
1167   0.11232   0.91678   0.37342   -0.14240   0.11232   0.91678   0.37342   -0.14240   95.51392
1168   0.11242   0.91592   0.37617   -0.14103   0.11242   0.91592   0.37617   -0.14103   95.51086
1169   0.11275   0.91662   0.37480   -0.14032   0.11275   0.91662   0.37480   -0.14032   95.42542
1170   0.11269   0.91635   0.37513   -0.14093   0.11269   0.91635   0.37513   -0.14093   95.46509
1171   0.11253   0.91656   0.37416   -0.14164   0.11253   0.91656   0.37416   -0.14164   95.50781
1172   0.11245   0.91626   0.37504   -0.14188   0.11245   0.91626   0.37504   -0.14188   95.49561
1173   0.11254   0.91662   0.37407   -0.14170   0.11254   0.91662   0.37407   -0.14170   95.43457
1174   0.11250   0.91626   0.37547   -0.14078   0.11250   0.91626   0.37547   -0.14078   95.44067
1175   0.11237   0.91610   0.37550   -0.14124   0.11237   0.91610   0.37550   -0.14124   95.51697
1176   0.11242   0.91632   0.37504   -0.14130   0.11242   0.91632   0.37504   -0.14130   95.49561
1177   0.11246   0.91601   0.37541   -0.14185   0.11246   0.91601   0.37541   -0.14185   95.44067
1178   0.11250   0.91638   0.37498   -0.14069   0.11250   0.91638   0.37498   -0.14069   95.46509
1179   0.11243   0.91607   0.37574   -0.14103   0.11243   0.91607   0.37574   -0.14103   95.52002
1180   0.11253   0.91653   0.37443   -0.14115   0.11253   0.91653   0.37443   -0.14115   95.49866
1181   0.11275   0.91626   0.37523   -0.14075   0.11275   0.91626   0.37523   -0.14075   95.44983
1182   0.11250   0.91650   0.37437   -0.14188   0.11250   0.91650   0.37437   -0.14188   95.44067
1183   0.11226   0.91580   0.37599   -0.14203   0.11226   0.91580   0.37599   -0.14203   95.48035
1184   0.11265   0.91620   0.37544   -0.14084   0.11265   0.91620   0.37544   -0.14084   95.48035
1185   0.11265   0.91610   0.37541   -0.14142   0.11265   0.91610   0.37541   -0.14142   95.43152
1186   0.11243   0.91638   0.37516   -0.14081   0.11243   0.91638   0.37516   -0.14081   95.46204
1187   0.11223   0.91665   0.37370   -0.14264   0.11223   0.91665   0.37370   -0.14264   95.52002
1188   0.11244   0.91574   0.37623   -0.14188   0.11244   0.91574   0.37623   -0.14188   95.48035
1189   0.11258   0.91623   0.37513   -0.14164   0.11258   0.91623   0.37513   -0.14164   95.46814
1190   0.11242   0.91632   0.37437   -0.14310   0.11242   0.91632   0.37437   -0.14310   95.47729
1191   0.11239   0.91629   0.37498   -0.14154   0.11239   0.91629   0.37498   -0.14154   95.50171
1192   0.11248   0.91641   0.37486   -0.14106   0.11248   0.91641   0.37486   -0.14106   95.43152
1193   0.11250   0.91623   0.37495   -0.14158   0.11250   0.91623   0.37495   -0.14158   95.44983
1194   0.11251   0.91653   0.37425   -0.14170   0.11251   0.91653   0.37425   -0.14170   95.47424
1195   0.11251   0.91681   0.37391   -0.14118   0.11251   0.91681   0.37391   -0.14118   95.48950
1196   0.11254   0.91671   0.37400   -0.14161   0.11254   0.91671   0.37400   -0.14161   95.42542
1197   0.11255   0.91629   0.37477   -0.14188   0.11255   0.91629   0.37477   -0.14188   95.46814
1198   0.11250   0.91626   0.37513   -0.14115   0.11250   0.91626   0.37513   -0.14115   95.49866
1199   0.11243   0.91614   0.37550   -0.14106   0.11243   0.91614   0.37550   -0.14106   95.52002
1200   0.11246   0.91647   0.37471   -0.14087   0.11246   0.91647   0.37471   -0.14087   95.43152
1201   0.11241   0.91681   0.37379   -0.14170   0.11241   0.91681   0.37379   -0.14170   95.47729
1202   0.11239   0.91675   0.37403   -0.14133   0.11239   0.91675   0.37403   -0.14133   95.51697
1203   0.11246   0.91665   0.37419   -0.14112   0.11246   0.91665   0.37419   -0.14112   95.46509
1204   0.11251   0.91662   0.37425   -0.14130   0.11251   0.91662   0.37425   -0.14130   95.46509
1205   0.11247   0.91629   0.37486   -0.14170   0.11247   0.91629   0.37486   -0.14170   95.51392
1206   0.11248   0.91620   0.37529   -0.14109   0.11248   0.91620   0.37529   -0.14109   95.52002
1207   0.11253   0.91604   0.37532   -0.14179   0.11253   0.91604   0.37532   -0.14179   95.43457
1208   0.11258   0.91684   0.37364   -0.14139   0.11258   0.91684   0.37364   -0.14139   95.48340
1209   0.11251   0.91671   0.37385   -0.14170   0.11251   0.91671   0.37385   -0.14170   95.51392
1210   0.11252   0.91665   0.37416   -0.14130   0.11252   0.91665   0.37416   -0.14130   95.52307
1211   0.11258   0.91665   0.37397   -0.14188   0.11258   0.91665   0.37397   -0.14188   95.45288
1212   0.11251   0.91684   0.37352   -0.14139   0.11251   0.91684   0.37352   -0.14139   95.48950
1213   0.11242   0.91635   0.37446   -0.14258   0.11242   0.91635   0.37446   -0.14258   95.53528
1214   0.11235   0.91629   0.37437   -0.14270   0.11235   0.91629   0.37437   -0.14270   95.55664
1215   0.11249   0.91665   0.37428   -0.14087   0.11249   0.91665   0.37428   -0.14087   95.44983
1216   0.11252   0.91641   0.37443   -0.14197   0.11252   0.91641   0.37443   -0.14197   95.43457
1217   0.11242   0.91665   0.37413   -0.14106   0.11242   0.91665   0.37413   -0.14106   95.52612
1218   0.11244   0.91665   0.37407   -0.14158   0.11244   0.91665   0.37407   -0.14158   95.52917
1219   0.11259   0.91626   0.37434   -0.14298   0.11259   0.91626   0.37434   -0.14298   95.42847
1220   0.11256   0.91653   0.37428   -0.14194   0.11256   0.91653   0.37428   -0.14194   95.43457
1221   0.11245   0.91601   0.37556   -0.14164   0.11245   0.91601   0.37556   -0.14164   95.53528
1222   0.11250   0.91614   0.37510   -0.14237   0.11250   0.91614   0.37510   -0.14237   95.50476
1223   0.11265   0.91662   0.37397   -0.14200   0.11265   0.91662   0.37397   -0.14200   95.43152
1224   0.11259   0.91726   0.37236   -0.14206   0.11259   0.91726   0.37236   -0.14206   95.47729
1225   0.11245   0.91662   0.37382   -0.14188   0.11245   0.91662   0.37382   -0.14188   95.55359
1226   0.11241   0.91681   0.37361   -0.14176   0.11241   0.91681   0.37361   -0.14176   95.48645
1227   0.11251   0.91656   0.37413   -0.14151   0.11251   0.91656   0.37413   -0.14151   95.44983
1228   0.11252   0.91632   0.37486   -0.14106   0.11252   0.91632   0.37486   -0.14106   95.46509
1229   0.11240   0.91702   0.37333   -0.14103   0.11240   0.91702   0.37333   -0.14103   95.54138
1230   0.11247   0.91662   0.37400   -0.14240   0.11247   0.91662   0.37400   -0.14240   95.48035
1231   0.11255   0.91687   0.37367   -0.14164   0.11255   0.91687   0.37367   -0.14164   95.41016
1232   0.11251   0.91687   0.37330   -0.14212   0.11251   0.91687   0.37330   -0.14212   95.44983
1233   0.11245   0.91656   0.37425   -0.14182   0.11245   0.91656   0.37425   -0.14182   95.54443
1234   0.11255   0.91641   0.37474   -0.14121   0.11255   0.91641   0.37474   -0.14121   95.49866
1235   0.11258   0.91665   0.37443   -0.14078   0.11258   0.91665   0.37443   -0.14078   95.45288
1236   0.11254   0.91690   0.37315   -0.14261   0.11254   0.91690   0.37315   -0.14261   95.48340
1237   0.11246   0.91696   0.37291   -0.14252   0.11246   0.91696   0.37291   -0.14252   95.53833
1238   0.11249   0.91705   0.37321   -0.14136   0.11249   0.91705   0.37321   -0.14136   95.48035
1239   0.11242   0.91650   0.37416   -0.14206   0.11242   0.91650   0.37416   -0.14206   95.47119
1240   0.11243   0.91690   0.37324   -0.14182   0.11243   0.91690   0.37324   -0.14182   95.49561
1241   0.11239   0.91696   0.37303   -0.14212   0.11239   0.91696   0.37303   -0.14212   95.52612
1242   0.11245   0.91650   0.37468   -0.14109   0.11245   0.91650   0.37468   -0.14109   95.46204
1243   0.11260   0.91675   0.37382   -0.14161   0.11260   0.91675   0.37382   -0.14161   95.47729
1244   0.11250   0.91699   0.37315   -0.14209   0.11250   0.91699   0.37315   -0.14209   95.49866
1245   0.11245   0.91671   0.37400   -0.14133   0.11245   0.91671   0.37400   -0.14133   95.55969
1246   0.11254   0.91671   0.37367   -0.14219   0.11254   0.91671   0.37367   -0.14219   95.46814
1247   0.11270   0.91665   0.37397   -0.14197   0.11270   0.91665   0.37397   -0.14197   95.44983
1248   0.11263   0.91681   0.37361   -0.14164   0.11263   0.91681   0.37361   -0.14164   95.49561
1249   0.11261   0.91601   0.37516   -0.14234   0.11261   0.91601   0.37516   -0.14234   95.51086
1250   0.11250   0.91711   0.37281   -0.14203   0.11250   0.91711   0.37281   -0.14203   95.46509
1251   0.11250   0.91687   0.37330   -0.14203   0.11250   0.91687   0.37330   -0.14203   95.47424
1252   0.11234   0.91632   0.37440   -0.14258   0.11234   0.91632   0.37440   -0.14258   95.51697
1253   0.11238   0.91668   0.37416   -0.14112   0.11238   0.91668   0.37416   -0.14112   95.50171
1254   0.11246   0.91684   0.37358   -0.14206   0.11246   0.91684   0.37358   -0.14206   95.44067
1255   0.11245   0.91687   0.37312   -0.14258   0.11245   0.91687   0.37312   -0.14258   95.46204
1256   0.11242   0.91687   0.37312   -0.14234   0.11242   0.91687   0.37312   -0.14234   95.50171
1257   0.11249   0.91675   0.37370   -0.14191   0.11249   0.91675   0.37370   -0.14191   95.47424
1258   0.11256   0.91678   0.37370   -0.14185   0.11256   0.91678   0.37370   -0.14185   95.44373
1259   0.11250   0.91665   0.37397   -0.14176   0.11250   0.91665   0.37397   -0.14176   95.50476
1260   0.11252   0.91668   0.37364   -0.14286   0.11252   0.91668   0.37364   -0.14286   95.50781
1261   0.11256   0.91711   0.37321   -0.14109   0.11256   0.91711   0.37321   -0.14109   95.48340
1262   0.11254   0.91659   0.37422   -0.14164   0.11254   0.91659   0.37422   -0.14164   95.44373
1263   0.11248   0.91681   0.37321   -0.14277   0.11248   0.91681   0.37321   -0.14277   95.49561
1264   0.11235   0.91705   0.37284   -0.14243   0.11235   0.91705   0.37284   -0.14243   95.50781
1265   0.11210   0.91659   0.37419   -0.14188   0.11210   0.91659   0.37419   -0.14188   95.46509
1266   0.11249   0.91656   0.37376   -0.14310   0.11249   0.91656   0.37376   -0.14310   95.43152
1267   0.11258   0.91678   0.37367   -0.14182   0.11258   0.91678   0.37367   -0.14182   95.53223
1268   0.11242   0.91650   0.37419   -0.14246   0.11242   0.91650   0.37419   -0.14246   95.49561
1269   0.11243   0.91678   0.37370   -0.14206   0.11243   0.91678   0.37370   -0.14206   95.43762
1270   0.11255   0.91614   0.37492   -0.14274   0.11255   0.91614   0.37492   -0.14274   95.45898
1271   0.11255   0.91671   0.37330   -0.14298   0.11255   0.91671   0.37330   -0.14298   95.55664
1272   0.11261   0.91623   0.37489   -0.14191   0.11261   0.91623   0.37489   -0.14191   95.52612
1273   0.11259   0.91620   0.37492   -0.14216   0.11259   0.91620   0.37492   -0.14216   95.41321
1274   0.11249   0.91690   0.37345   -0.14167   0.11249   0.91690   0.37345   -0.14167   95.48035
1275   0.11246   0.91626   0.37480   -0.14191   0.11246   0.91626   0.37480   -0.14191   95.53833
1276   0.11250   0.91632   0.37477   -0.14222   0.11250   0.91632   0.37477   -0.14222   95.51392
1277   0.11251   0.91653   0.37431   -0.14161   0.11251   0.91653   0.37431   -0.14161   95.43457
1278   0.11238   0.91708   0.37291   -0.14206   0.11238   0.91708   0.37291   -0.14206   95.50171
1279   0.11250   0.91659   0.37449   -0.14133   0.11250   0.91659   0.37449   -0.14133   95.52917
1280   0.11244   0.91632   0.37495   -0.14142   0.11244   0.91632   0.37495   -0.14142   95.48035
1281   0.11266   0.91668   0.37397   -0.14133   0.11266   0.91668   0.37397   -0.14133   95.42236
1282   0.11256   0.91647   0.37452   -0.14130   0.11256   0.91647   0.37452   -0.14130   95.50171
1283   0.11243   0.91644   0.37471   -0.14170   0.11243   0.91644   0.37471   -0.14170   95.51086
1284   0.11263   0.91617   0.37510   -0.14136   0.11263   0.91617   0.37510   -0.14136   95.51086
1285   0.11274   0.91684   0.37373   -0.14176   0.11274   0.91684   0.37373   -0.14176   95.41931
1286   0.11264   0.91675   0.37413   -0.14112   0.11264   0.91675   0.37413   -0.14112   95.48645
1287   0.11254   0.91653   0.37416   -0.14234   0.11254   0.91653   0.37416   -0.14234   95.51697
1288   0.11262   0.91641   0.37468   -0.14130   0.11262   0.91641   0.37468   -0.14130   95.48645
1289   0.11261   0.91665   0.37410   -0.14197   0.11261   0.91665   0.37410   -0.14197   95.41321
1290   0.11250   0.91638   0.37449   -0.14243   0.11250   0.91638   0.37449   -0.14243   95.48035
1291   0.11235   0.91675   0.37358   -0.14240   0.11235   0.91675   0.37358   -0.14240   95.51697
1292   0.11250   0.91632   0.37480   -0.14139   0.11250   0.91632   0.37480   -0.14139   95.47424
1293   0.11253   0.91656   0.37410   -0.14170   0.11253   0.91656   0.37410   -0.14170   95.41016
1294   0.11251   0.91626   0.37495   -0.14148   0.11251   0.91626   0.37495   -0.14148   95.48340
1295   0.11243   0.91659   0.37446   -0.14112   0.11243   0.91659   0.37446   -0.14112   95.52917
1296   0.11252   0.91659   0.37428   -0.14161   0.11252   0.91659   0.37428   -0.14161   95.45898
1297   0.11255   0.91635   0.37480   -0.14161   0.11255   0.91635   0.37480   -0.14161   95.42542
1298   0.11263   0.91656   0.37403   -0.14206   0.11263   0.91656   0.37403   -0.14206   95.52002
1299   0.11251   0.91635   0.37443   -0.14206   0.11251   0.91635   0.37443   -0.14206   95.51392
1300   0.11259   0.91638   0.37443   -0.14176   0.11259   0.91638   0.37443   -0.14176   95.48645
1301   0.11263   0.91711   0.37288   -0.14188   0.11263   0.91711   0.37288   -0.14188   95.46204
1302   0.11246   0.91696   0.37367   -0.14078   0.11246   0.91696   0.37367   -0.14078   95.52917
1303   0.11242   0.91665   0.37394   -0.14197   0.11242   0.91665   0.37394   -0.14197   95.51086
1304   0.11243   0.91659   0.37407   -0.14200   0.11243   0.91659   0.37407   -0.14200   95.42236
1305   0.11252   0.91632   0.37461   -0.14200   0.11252   0.91632   0.37461   -0.14200   95.44983
1306   0.11241   0.91638   0.37513   -0.14048   0.11241   0.91638   0.37513   -0.14048   95.49561
1307   0.11248   0.91626   0.37489   -0.14219   0.11248   0.91626   0.37489   -0.14219   95.48950
1308   0.11252   0.91665   0.37431   -0.14087   0.11252   0.91665   0.37431   -0.14087   95.48950
1309   0.11254   0.91656   0.37391   -0.14246   0.11254   0.91656   0.37391   -0.14246   95.49255
1310   0.11249   0.91623   0.37529   -0.14112   0.11249   0.91623   0.37529   -0.14112   95.52917
1311   0.11257   0.91665   0.37400   -0.14161   0.11257   0.91665   0.37400   -0.14161   95.49255
1312   0.11256   0.91653   0.37422   -0.14203   0.11256   0.91653   0.37422   -0.14203   95.47729
1313   0.11259   0.91671   0.37358   -0.14200   0.11259   0.91671   0.37358   -0.14200   95.47729
1314   0.11254   0.91675   0.37391   -0.14158   0.11254   0.91675   0.37391   -0.14158   95.49866
1315   0.11253   0.91638   0.37489   -0.14164   0.11253   0.91638   0.37489   -0.14164   95.46814
1316   0.11251   0.91671   0.37416   -0.14087   0.11251   0.91671   0.37416   -0.14087   95.48340
1317   0.11242   0.91635   0.37489   -0.14081   0.11242   0.91635   0.37489   -0.14081   95.51086
1318   0.11245   0.91644   0.37458   -0.14151   0.11245   0.91644   0.37458   -0.14151   95.51086
1319   0.11254   0.91659   0.37403   -0.14222   0.11254   0.91659   0.37403   -0.14222   95.42542
1320   0.11259   0.91610   0.37516   -0.14228   0.11259   0.91610   0.37516   -0.14228   95.47729
1321   0.11250   0.91662   0.37391   -0.14191   0.11250   0.91662   0.37391   -0.14191   95.52917
1322   0.11256   0.91668   0.37388   -0.14188   0.11256   0.91668   0.37388   -0.14188   95.48340
1323   0.11261   0.91693   0.37349   -0.14173   0.11261   0.91693   0.37349   -0.14173   95.42847
1324   0.11258   0.91702   0.37312   -0.14148   0.11258   0.91702   0.37312   -0.14148   95.50781
1325   0.11255   0.91659   0.37400   -0.14228   0.11255   0.91659   0.37400   -0.14228   95.52307
1326   0.11263   0.91702   0.37269   -0.14240   0.11263   0.91702   0.37269   -0.14240   95.48645
1327   0.11265   0.91678   0.37388   -0.14124   0.11265   0.91678   0.37388   -0.14124   95.43152
1328   0.11262   0.91644   0.37458   -0.14151   0.11262   0.91644   0.37458   -0.14151   95.48645
1329   0.11240   0.91659   0.37394   -0.14225   0.11240   0.91659   0.37394   -0.14225   95.56580
1330   0.11243   0.91678   0.37361   -0.14179   0.11243   0.91678   0.37361   -0.14179   95.47119
1331   0.11254   0.91681   0.37339   -0.14231   0.11254   0.91681   0.37339   -0.14231   95.47424
1332   0.11249   0.91684   0.37352   -0.14176   0.11249   0.91684   0.37352   -0.14176   95.49866
1333   0.11245   0.91717   0.37303   -0.14081   0.11245   0.91717   0.37303   -0.14081   95.53528
1334   0.11253   0.91653   0.37468   -0.14063   0.11253   0.91653   0.37468   -0.14063   95.46814
1335   0.11256   0.91659   0.37449   -0.14066   0.11256   0.91659   0.37449   -0.14066   95.50171
1336   0.11254   0.91675   0.37358   -0.14243   0.11254   0.91675   0.37358   -0.14243   95.49866
1337   0.11250   0.91665   0.37400   -0.14191   0.11250   0.91665   0.37400   -0.14191   95.53833
1338   0.11256   0.91653   0.37461   -0.14069   0.11256   0.91653   0.37461   -0.14069   95.46814
1339   0.11267   0.91675   0.37403   -0.14133   0.11267   0.91675   0.37403   -0.14133   95.44678
1340   0.11258   0.91690   0.37352   -0.14161   0.11258   0.91690   0.37352   -0.14161   95.49255
1341   0.11247   0.91650   0.37446   -0.14130   0.11247   0.91650   0.37446   -0.14130   95.54443
1342   0.11252   0.91687   0.37349   -0.14188   0.11252   0.91687   0.37349   -0.14188   95.42542
1343   0.11250   0.91714   0.37309   -0.14115   0.11250   0.91714   0.37309   -0.14115   95.40710
1344   0.11245   0.91714   0.37263   -0.14216   0.11245   0.91714   0.37263   -0.14216   95.52002
1345   0.11242   0.91644   0.37440   -0.14182   0.11242   0.91644   0.37440   -0.14182   95.52002
1346   0.11237   0.91681   0.37349   -0.14194   0.11237   0.91681   0.37349   -0.14194   95.50171
1347   0.11241   0.91665   0.37461   -0.14029   0.11241   0.91665   0.37461   -0.14029   95.47729
1348   0.11254   0.91668   0.37373   -0.14206   0.11254   0.91668   0.37373   -0.14206   95.52307
1349   0.11260   0.91690   0.37336   -0.14179   0.11260   0.91690   0.37336   -0.14179   95.51697
1350   0.11270   0.91653   0.37407   -0.14222   0.11270   0.91653   0.37407   -0.14222   95.44067
1351   0.11258   0.91641   0.37458   -0.14170   0.11258   0.91641   0.37458   -0.14170   95.47729
1352   0.11255   0.91650   0.37397   -0.14267   0.11255   0.91650   0.37397   -0.14267   95.49255
1353   0.11262   0.91662   0.37431   -0.14109   0.11262   0.91662   0.37431   -0.14109   95.49561
1354   0.11266   0.91650   0.37443   -0.14194   0.11266   0.91650   0.37443   -0.14194   95.40710
1355   0.11253   0.91687   0.37330   -0.14188   0.11253   0.91687   0.37330   -0.14188   95.47424
1356   0.11241   0.91696   0.37352   -0.14154   0.11241   0.91696   0.37352   -0.14154   95.52612
1357   0.11250   0.91678   0.37391   -0.14096   0.11250   0.91678   0.37391   -0.14096   95.49866
1358   0.11255   0.91708   0.37312   -0.14142   0.11255   0.91708   0.37312   -0.14142   95.45898
1359   0.11252   0.91641   0.37449   -0.14225   0.11252   0.91641   0.37449   -0.14225   95.49866
1360   0.11248   0.91705   0.37248   -0.14307   0.11248   0.91705   0.37248   -0.14307   95.54443
1361   0.11259   0.91699   0.37333   -0.14133   0.11259   0.91699   0.37333   -0.14133   95.46814
1362   0.11258   0.91675   0.37382   -0.14167   0.11258   0.91675   0.37382   -0.14167   95.44373
1363   0.11262   0.91726   0.37275   -0.14154   0.11262   0.91726   0.37275   -0.14154   95.50171
1364   0.11262   0.91662   0.37458   -0.14029   0.11262   0.91662   0.37458   -0.14029   95.51086
1365   0.11280   0.91711   0.37297   -0.14118   0.11280   0.91711   0.37297   -0.14118   95.51086
1366   0.11263   0.91726   0.37257   -0.14145   0.11263   0.91726   0.37257   -0.14145   95.50171
1367   0.11234   0.91711   0.37294   -0.14179   0.11234   0.91711   0.37294   -0.14179   95.49255
1368   0.11257   0.91681   0.37382   -0.14103   0.11257   0.91681   0.37382   -0.14103   95.48340
1369   0.11265   0.91705   0.37336   -0.14096   0.11265   0.91705   0.37336   -0.14096   95.43762
1370   0.11261   0.91690   0.37407   -0.14042   0.11261   0.91690   0.37407   -0.14042   95.49255
1371   0.11242   0.91684   0.37367   -0.14142   0.11242   0.91684   0.37367   -0.14142   95.52002
1372   0.11244   0.91653   0.37480   -0.14087   0.11244   0.91653   0.37480   -0.14087   95.49561
1373   0.11256   0.91671   0.37400   -0.14118   0.11256   0.91671   0.37400   -0.14118   95.45288
1374   0.11262   0.91662   0.37431   -0.14100   0.11262   0.91662   0.37431   -0.14100   95.51086
1375   0.11255   0.91638   0.37477   -0.14121   0.11255   0.91638   0.37477   -0.14121   95.49255
1376   0.11261   0.91690   0.37342   -0.14170   0.11261   0.91690   0.37342   -0.14170   95.45288
1377   0.11260   0.91687   0.37370   -0.14103   0.11260   0.91687   0.37370   -0.14103   95.46814
1378   0.11258   0.91687   0.37364   -0.14148   0.11258   0.91687   0.37364   -0.14148   95.49255
1379   0.11253   0.91720   0.37263   -0.14170   0.11253   0.91720   0.37263   -0.14170   95.54749
1380   0.11264   0.91665   0.37413   -0.14164   0.11264   0.91665   0.37413   -0.14164   95.47119
1381   0.11272   0.91659   0.37370   -0.14289   0.11272   0.91659   0.37370   -0.14289   95.43457
1382   0.11233   0.91696   0.37303   -0.14173   0.11233   0.91696   0.37303   -0.14173   95.49255
1383   0.11224   0.91647   0.37465   -0.14139   0.11224   0.91647   0.37465   -0.14139   95.52917
1384   0.11265   0.91665   0.37416   -0.14066   0.11265   0.91665   0.37416   -0.14066   95.45593
1385   0.11263   0.91684   0.37355   -0.14142   0.11263   0.91684   0.37355   -0.14142   95.46204
1386   0.11240   0.91659   0.37419   -0.14154   0.11240   0.91659   0.37419   -0.14154   95.52612
1387   0.11245   0.91647   0.37443   -0.14170   0.11245   0.91647   0.37443   -0.14170   95.55359
1388   0.11254   0.91699   0.37339   -0.14136   0.11254   0.91699   0.37339   -0.14136   95.46814
1389   0.11259   0.91690   0.37349   -0.14130   0.11259   0.91690   0.37349   -0.14130   95.46204
1390   0.11246   0.91653   0.37443   -0.14115   0.11246   0.91653   0.37443   -0.14115   95.54443
1391   0.11254   0.91693   0.37333   -0.14182   0.11254   0.91693   0.37333   -0.14182   95.52307
1392   0.11263   0.91708   0.37272   -0.14225   0.11263   0.91708   0.37272   -0.14225   95.44678
1393   0.11256   0.91690   0.37349   -0.14130   0.11256   0.91690   0.37349   -0.14130   95.46814
1394   0.11237   0.91696   0.37345   -0.14103   0.11237   0.91696   0.37345   -0.14103   95.54138
1395   0.11241   0.91714   0.37275   -0.14170   0.11241   0.91714   0.37275   -0.14170   95.51086
1396   0.11250   0.91714   0.37309   -0.14072   0.11250   0.91714   0.37309   -0.14072   95.43152
1397   0.11252   0.91668   0.37385   -0.14179   0.11252   0.91668   0.37385   -0.14179   95.45898
1398   0.11242   0.91699   0.37306   -0.14209   0.11242   0.91699   0.37306   -0.14209   95.55969
1399   0.11262   0.91656   0.37431   -0.14154   0.11262   0.91656   0.37431   -0.14154   95.51086
1400   0.11261   0.91690   0.37352   -0.14136   0.11261   0.91690   0.37352   -0.14136   95.47729
1401   0.11261   0.91720   0.37297   -0.14115   0.11261   0.91720   0.37297   -0.14115   95.47729
1402   0.11254   0.91681   0.37352   -0.14197   0.11254   0.91681   0.37352   -0.14197   95.54138
1403   0.11262   0.91671   0.37407   -0.14176   0.11262   0.91671   0.37407   -0.14176   95.45288
1404   0.11270   0.91638   0.37480   -0.14121   0.11270   0.91638   0.37480   -0.14121   95.42542
1405   0.11260   0.91702   0.37306   -0.14216   0.11260   0.91702   0.37306   -0.14216   95.46204
1406   0.11247   0.91675   0.37367   -0.14228   0.11247   0.91675   0.37367   -0.14228   95.53833
1407   0.11243   0.91690   0.37342   -0.14167   0.11243   0.91690   0.37342   -0.14167   95.47119
1408   0.11252   0.91714   0.37306   -0.14130   0.11252   0.91714   0.37306   -0.14130   95.45898
1409   0.11250   0.91681   0.37382   -0.14127   0.11250   0.91681   0.37382   -0.14127   95.48035
1410   0.11245   0.91711   0.37312   -0.14139   0.11245   0.91711   0.37312   -0.14139   95.55359
1411   0.11254   0.91699   0.37339   -0.14106   0.11254   0.91699   0.37339   -0.14106   95.48340
1412   0.11257   0.91711   0.37275   -0.14191   0.11257   0.91711   0.37275   -0.14191   95.45898
1413   0.11258   0.91699   0.37306   -0.14164   0.11258   0.91699   0.37306   -0.14164   95.49255
1414   0.11251   0.91705   0.37315   -0.14112   0.11251   0.91705   0.37315   -0.14112   95.51392
1415   0.11262   0.91702   0.37324   -0.14127   0.11262   0.91702   0.37324   -0.14127   95.47729
1416   0.11263   0.91699   0.37278   -0.14225   0.11263   0.91699   0.37278   -0.14225   95.45288
1417   0.11256   0.91711   0.37263   -0.14231   0.11256   0.91711   0.37263   -0.14231   95.53223
1418   0.11252   0.91656   0.37437   -0.14173   0.11252   0.91656   0.37437   -0.14173   95.50781
1419   0.11254   0.91690   0.37397   -0.14011   0.11254   0.91690   0.37397   -0.14011   95.44373
1420   0.11243   0.91684   0.37349   -0.14194   0.11243   0.91684   0.37349   -0.14194   95.44678
1421   0.11240   0.91684   0.37352   -0.14188   0.11240   0.91684   0.37352   -0.14188   95.51086
1422   0.11245   0.91626   0.37519   -0.14127   0.11245   0.91626   0.37519   -0.14127   95.48035
1423   0.11253   0.91711   0.37281   -0.14142   0.11253   0.91711   0.37281   -0.14142   95.49255
1424   0.11253   0.91678   0.37367   -0.14130   0.11253   0.91678   0.37367   -0.14130   95.49866
1425   0.11247   0.91702   0.37333   -0.14096   0.11247   0.91702   0.37333   -0.14096   95.51392
1426   0.11255   0.91659   0.37474   -0.14014   0.11255   0.91659   0.37474   -0.14014   95.47424
1427   0.11257   0.91714   0.37288   -0.14106   0.11257   0.91714   0.37288   -0.14106   95.47729
1428   0.11256   0.91714   0.37318   -0.14087   0.11256   0.91714   0.37318   -0.14087   95.50781
1429   0.11249   0.91662   0.37443   -0.14057   0.11249   0.91662   0.37443   -0.14057   95.52917
1430   0.11257   0.91675   0.37425   -0.14051   0.11257   0.91675   0.37425   -0.14051   95.48340
1431   0.11257   0.91702   0.37330   -0.14112   0.11257   0.91702   0.37330   -0.14112   95.49255
1432   0.11247   0.91714   0.37297   -0.14130   0.11247   0.91714   0.37297   -0.14130   95.49561
1433   0.11234   0.91681   0.37376   -0.14142   0.11234   0.91681   0.37376   -0.14142   95.50781
1434   0.11246   0.91711   0.37342   -0.14042   0.11246   0.91711   0.37342   -0.14042   95.48035
1435   0.11246   0.91693   0.37306   -0.14209   0.11246   0.91693   0.37306   -0.14209   95.48035
1436   0.11244   0.91696   0.37333   -0.14161   0.11244   0.91696   0.37333   -0.14161   95.52002
1437   0.11249   0.91714   0.37306   -0.14118   0.11249   0.91714   0.37306   -0.14118   95.48950
1438   0.11259   0.91684   0.37379   -0.14103   0.11259   0.91684   0.37379   -0.14103   95.41321
1439   0.11255   0.91684   0.37342   -0.14200   0.11255   0.91684   0.37342   -0.14200   95.44983
1440   0.11248   0.91644   0.37416   -0.14228   0.11248   0.91644   0.37416   -0.14228   95.50476
1441   0.11265   0.91687   0.37355   -0.14115   0.11265   0.91687   0.37355   -0.14115   95.50476
1442   0.11272   0.91656   0.37446   -0.14084   0.11272   0.91656   0.37446   -0.14084   95.42542
1443   0.11266   0.91671   0.37431   -0.14023   0.11266   0.91671   0.37431   -0.14023   95.51392
1444   0.11247   0.91702   0.37355   -0.14090   0.11247   0.91702   0.37355   -0.14090   95.55359
1445   0.11260   0.91671   0.37431   -0.14051   0.11260   0.91671   0.37431   -0.14051   95.51697
1446   0.11245   0.91714   0.37318   -0.14026   0.11245   0.91714   0.37318   -0.14026   95.48035
1447   0.11260   0.91708   0.37303   -0.14197   0.11260   0.91708   0.37303   -0.14197   95.51086
1448   0.11247   0.91641   0.37507   -0.14039   0.11247   0.91641   0.37507   -0.14039   95.53833
1449   0.11247   0.91675   0.37410   -0.14100   0.11247   0.91675   0.37410   -0.14100   95.45593
1450   0.11256   0.91717   0.37275   -0.14173   0.11256   0.91717   0.37275   -0.14173   95.41931
1451   0.11250   0.91659   0.37400   -0.14158   0.11250   0.91659   0.37400   -0.14158   95.51392
1452   0.11246   0.91751   0.37217   -0.14112   0.11246   0.91751   0.37217   -0.14112   95.55359
1453   0.11249   0.91665   0.37397   -0.14161   0.11249   0.91665   0.37397   -0.14161   95.50476
1454   0.11257   0.91678   0.37394   -0.14109   0.11257   0.91678   0.37394   -0.14109   95.42847
1455   0.11247   0.91708   0.37349   -0.14066   0.11247   0.91708   0.37349   -0.14066   95.52002
1456   0.11247   0.91659   0.37428   -0.14118   0.11247   0.91659   0.37428   -0.14118   95.53833
1457   0.11251   0.91638   0.37483   -0.14121   0.11251   0.91638   0.37483   -0.14121   95.45898
1458   0.11252   0.91748   0.37257   -0.14060   0.11252   0.91748   0.37257   -0.14060   95.46509
1459   0.11244   0.91699   0.37355   -0.14069   0.11244   0.91699   0.37355   -0.14069   95.50476
1460   0.11238   0.91684   0.37376   -0.14151   0.11238   0.91684   0.37376   -0.14151   95.52612
1461   0.11245   0.91681   0.37345   -0.14228   0.11245   0.91681   0.37345   -0.14228   95.48035
1462   0.11251   0.91723   0.37257   -0.14127   0.11251   0.91723   0.37257   -0.14127   95.44067
1463   0.11242   0.91675   0.37391   -0.14103   0.11242   0.91675   0.37391   -0.14103   95.51086
1464   0.11238   0.91665   0.37446   -0.14042   0.11238   0.91665   0.37446   -0.14042   95.55969
1465   0.11224   0.91665   0.37434   -0.14084   0.11224   0.91665   0.37434   -0.14084   95.45593
1466   0.11256   0.91671   0.37400   -0.14100   0.11256   0.91671   0.37400   -0.14100   95.48340
1467   0.11275   0.91668   0.37388   -0.14173   0.11275   0.91668   0.37388   -0.14173   95.49255
1468   0.11252   0.91720   0.37312   -0.14063   0.11252   0.91720   0.37312   -0.14063   95.51392
1469   0.11250   0.91690   0.37370   -0.14112   0.11250   0.91690   0.37370   -0.14112   95.44983
1470   0.11247   0.91681   0.37352   -0.14200   0.11247   0.91681   0.37352   -0.14200   95.44067
1471   0.11248   0.91595   0.37596   -0.14121   0.11248   0.91595   0.37596   -0.14121   95.52917
1472   0.11234   0.91653   0.37480   -0.14005   0.11234   0.91653   0.37480   -0.14005   95.52307
1473   0.11246   0.91656   0.37428   -0.14176   0.11246   0.91656   0.37428   -0.14176   95.44678
1474   0.11245   0.91620   0.37559   -0.14045   0.11245   0.91620   0.37559   -0.14045   95.47119
1475   0.11239   0.91662   0.37431   -0.14130   0.11239   0.91662   0.37431   -0.14130   95.49255
1476   0.11245   0.91684   0.37410   -0.14039   0.11245   0.91684   0.37410   -0.14039   95.46204
1477   0.11250   0.91675   0.37385   -0.14124   0.11250   0.91675   0.37385   -0.14124   95.49866
1478   0.11251   0.91638   0.37501   -0.14069   0.11251   0.91638   0.37501   -0.14069   95.49866
1479   0.11250   0.91659   0.37416   -0.14228   0.11250   0.91659   0.37416   -0.14228   95.49866
1480   0.11257   0.91650   0.37443   -0.14203   0.11257   0.91650   0.37443   -0.14203   95.45288
1481   0.11265   0.91733   0.37269   -0.14121   0.11265   0.91733   0.37269   -0.14121   95.47119
1482   0.11261   0.91705   0.37349   -0.14096   0.11261   0.91705   0.37349   -0.14096   95.47729
1483   0.11251   0.91699   0.37373   -0.14051   0.11251   0.91699   0.37373   -0.14051   95.48950
1484   0.11249   0.91671   0.37407   -0.14118   0.11249   0.91671   0.37407   -0.14118   95.45593
1485   0.11244   0.91668   0.37434   -0.14081   0.11244   0.91668   0.37434   -0.14081   95.48645
1486   0.11251   0.91681   0.37382   -0.14112   0.11251   0.91681   0.37382   -0.14112   95.52307
1487   0.11247   0.91665   0.37428   -0.14048   0.11247   0.91665   0.37428   -0.14048   95.50476
1488   0.11257   0.91705   0.37300   -0.14185   0.11257   0.91705   0.37300   -0.14185   95.45288
1489   0.11250   0.91681   0.37391   -0.14127   0.11250   0.91681   0.37391   -0.14127   95.48035
1490   0.11251   0.91601   0.37580   -0.14112   0.11251   0.91601   0.37580   -0.14112   95.48950
1491   0.11252   0.91635   0.37471   -0.14145   0.11252   0.91635   0.37471   -0.14145   95.48950
1492   0.11255   0.91641   0.37443   -0.14197   0.11255   0.91641   0.37443   -0.14197   95.40100
1493   0.11252   0.91598   0.37602   -0.14054   0.11252   0.91598   0.37602   -0.14054   95.50781
1494   0.11251   0.91693   0.37391   -0.14054   0.11251   0.91693   0.37391   -0.14054   95.53833
1495   0.11255   0.91656   0.37452   -0.14093   0.11255   0.91656   0.37452   -0.14093   95.49255
1496   0.11255   0.91644   0.37510   -0.14005   0.11255   0.91644   0.37510   -0.14005   95.43457
1497   0.11253   0.91635   0.37544   -0.14023   0.11253   0.91635   0.37544   -0.14023   95.48340
1498   0.11232   0.91620   0.37532   -0.14121   0.11232   0.91620   0.37532   -0.14121   95.53833
1499   0.11257   0.91626   0.37562   -0.14017   0.11257   0.91626   0.37562   -0.14017   95.49255
1500   0.11246   0.91644   0.37513   -0.13956   0.11246   0.91644   0.37513   -0.13956   95.44678
1501   0.11246   0.91659   0.37446   -0.14112   0.11246   0.91659   0.37446   -0.14112   95.50476
1502   0.11246   0.91714   0.37312   -0.14051   0.11246   0.91714   0.37312   -0.14051   95.54443
1503   0.11257   0.91629   0.37495   -0.14164   0.11257   0.91629   0.37495   -0.14164   95.44373
1504   0.11259   0.91659   0.37437   -0.14118   0.11259   0.91659   0.37437   -0.14118   95.43762
1505   0.11247   0.91614   0.37568   -0.14075   0.11247   0.91614   0.37568   -0.14075   95.51392
1506   0.11248   0.91659   0.37434   -0.14170   0.11248   0.91659   0.37434   -0.14170   95.52917
1507   0.11260   0.91641   0.37492   -0.14093   0.11260   0.91641   0.37492   -0.14093   95.45288
1508   0.11268   0.91577   0.37663   -0.14051   0.11268   0.91577   0.37663   -0.14051   95.44678
1509   0.11249   0.91635   0.37504   -0.14048   0.11249   0.91635   0.37504   -0.14048   95.51392
1510   0.11240   0.91623   0.37523   -0.14109   0.11240   0.91623   0.37523   -0.14109   95.53528
1511   0.11242   0.91620   0.37565   -0.14023   0.11242   0.91620   0.37565   -0.14023   95.44678
1512   0.11247   0.91614   0.37547   -0.14090   0.11247   0.91614   0.37547   -0.14090   95.45593
1513   0.11240   0.91623   0.37519   -0.14133   0.11240   0.91623   0.37519   -0.14133   95.48645
1514   0.11257   0.91644   0.37477   -0.14124   0.11257   0.91644   0.37477   -0.14124   95.51697
1515   0.11255   0.91604   0.37593   -0.14054   0.11255   0.91604   0.37593   -0.14054   95.41016
1516   0.11255   0.91638   0.37510   -0.14051   0.11255   0.91638   0.37510   -0.14051   95.43457
1517   0.11259   0.91565   0.37672   -0.14081   0.11259   0.91565   0.37672   -0.14081   95.49255
1518   0.11254   0.91617   0.37571   -0.14063   0.11254   0.91617   0.37571   -0.14063   95.51697
1519   0.11264   0.91644   0.37535   -0.13984   0.11264   0.91644   0.37535   -0.13984   95.43152
1520   0.11263   0.91626   0.37526   -0.14115   0.11263   0.91626   0.37526   -0.14115   95.45288
1521   0.11252   0.91598   0.37605   -0.14035   0.11252   0.91598   0.37605   -0.14035   95.53833
1522   0.11247   0.91617   0.37547   -0.14090   0.11247   0.91617   0.37547   -0.14090   95.48035
1523   0.11248   0.91632   0.37538   -0.14020   0.11248   0.91632   0.37538   -0.14020   95.43152
1524   0.11239   0.91577   0.37623   -0.14151   0.11239   0.91577   0.37623   -0.14151   95.46814
1525   0.11240   0.91626   0.37513   -0.14151   0.11240   0.91626   0.37513   -0.14151   95.51697
1526   0.11240   0.91629   0.37523   -0.14103   0.11240   0.91629   0.37523   -0.14103   95.47729
1527   0.11250   0.91607   0.37587   -0.14032   0.11250   0.91607   0.37587   -0.14032   95.42542
1528   0.11248   0.91604   0.37584   -0.14042   0.11248   0.91604   0.37584   -0.14042   95.47119
1529   0.11247   0.91647   0.37510   -0.14039   0.11247   0.91647   0.37510   -0.14039   95.50476
1530   0.11263   0.91580   0.37666   -0.13993   0.11263   0.91580   0.37666   -0.13993   95.45288
1531   0.11265   0.91552   0.37715   -0.14075   0.11265   0.91552   0.37715   -0.14075   95.46204
1532   0.11253   0.91571   0.37700   -0.14014   0.11253   0.91571   0.37700   -0.14014   95.46814
1533   0.11256   0.91626   0.37544   -0.14042   0.11256   0.91626   0.37544   -0.14042   95.50781
1534   0.11256   0.91598   0.37654   -0.13971   0.11256   0.91598   0.37654   -0.13971   95.44373
1535   0.11249   0.91607   0.37562   -0.14109   0.11249   0.91607   0.37562   -0.14109   95.45593
1536   0.11240   0.91626   0.37541   -0.14020   0.11240   0.91626   0.37541   -0.14020   95.47729
1537   0.11237   0.91595   0.37626   -0.14081   0.11237   0.91595   0.37626   -0.14081   95.46814
1538   0.11247   0.91601   0.37574   -0.14078   0.11247   0.91601   0.37574   -0.14078   95.44678
1539   0.11241   0.91589   0.37623   -0.14087   0.11241   0.91589   0.37623   -0.14087   95.49561
1540   0.11242   0.91568   0.37678   -0.14026   0.11242   0.91568   0.37678   -0.14026   95.49561
1541   0.11245   0.91589   0.37642   -0.14005   0.11245   0.91589   0.37642   -0.14005   95.47119
1542   0.11252   0.91589   0.37651   -0.14008   0.11252   0.91589   0.37651   -0.14008   95.42542
1543   0.11250   0.91614   0.37550   -0.14087   0.11250   0.91614   0.37550   -0.14087   95.48035
1544   0.11248   0.91607   0.37599   -0.14029   0.11248   0.91607   0.37599   -0.14029   95.48950
1545   0.11248   0.91577   0.37660   -0.14042   0.11248   0.91577   0.37660   -0.14042   95.44678
1546   0.11246   0.91522   0.37822   -0.14020   0.11246   0.91522   0.37822   -0.14020   95.44067
1547   0.11242   0.91519   0.37822   -0.14017   0.11242   0.91519   0.37822   -0.14017   95.46204
1548   0.11247   0.91595   0.37629   -0.13999   0.11247   0.91595   0.37629   -0.13999   95.52002
1549   0.11249   0.91568   0.37696   -0.14017   0.11249   0.91568   0.37696   -0.14017   95.45593
1550   0.11248   0.91580   0.37632   -0.14121   0.11248   0.91580   0.37632   -0.14121   95.43152
1551   0.11242   0.91580   0.37642   -0.14109   0.11242   0.91580   0.37642   -0.14109   95.48645
1552   0.11241   0.91580   0.37632   -0.14096   0.11241   0.91580   0.37632   -0.14096   95.50171
1553   0.11257   0.91614   0.37580   -0.14078   0.11257   0.91614   0.37580   -0.14078   95.43457
1554   0.11268   0.91552   0.37721   -0.14042   0.11268   0.91552   0.37721   -0.14042   95.45593
1555   0.11252   0.91583   0.37654   -0.14054   0.11252   0.91583   0.37654   -0.14054   95.50781
1556   0.11258   0.91540   0.37745   -0.14032   0.11258   0.91540   0.37745   -0.14032   95.49255
1557   0.11263   0.91592   0.37645   -0.14011   0.11263   0.91592   0.37645   -0.14011   95.43762
1558   0.11259   0.91598   0.37611   -0.14060   0.11259   0.91598   0.37611   -0.14060   95.43762
1559   0.11254   0.91610   0.37571   -0.14051   0.11254   0.91610   0.37571   -0.14051   95.49255
1560   0.11251   0.91571   0.37709   -0.14008   0.11251   0.91571   0.37709   -0.14008   95.48340
1561   0.11266   0.91525   0.37754   -0.14130   0.11266   0.91525   0.37754   -0.14130   95.40710
1562   0.11241   0.91574   0.37620   -0.14158   0.11241   0.91574   0.37620   -0.14158   95.47119
1563   0.11232   0.91543   0.37761   -0.14005   0.11232   0.91543   0.37761   -0.14005   95.54749
1564   0.11250   0.91586   0.37690   -0.13886   0.11250   0.91586   0.37690   -0.13886   95.48950
1565   0.11272   0.91556   0.37742   -0.13959   0.11272   0.91556   0.37742   -0.13959   95.39185
1566   0.11248   0.91546   0.37745   -0.13984   0.11248   0.91546   0.37745   -0.13984   95.48035
1567   0.11224   0.91549   0.37700   -0.14127   0.11224   0.91549   0.37700   -0.14127   95.51086
1568   0.11252   0.91601   0.37614   -0.14035   0.11252   0.91601   0.37614   -0.14035   95.44983
1569   0.11275   0.91525   0.37797   -0.13984   0.11275   0.91525   0.37797   -0.13984   95.39490
1570   0.11265   0.91577   0.37645   -0.14087   0.11265   0.91577   0.37645   -0.14087   95.48035
1571   0.11247   0.91574   0.37675   -0.14008   0.11247   0.91574   0.37675   -0.14008   95.51392
1572   0.11251   0.91534   0.37745   -0.14063   0.11251   0.91534   0.37745   -0.14063   95.42542
1573   0.11262   0.91571   0.37654   -0.14096   0.11262   0.91571   0.37654   -0.14096   95.40405
1574   0.11261   0.91574   0.37638   -0.14173   0.11261   0.91574   0.37638   -0.14173   95.42847
1575   0.11235   0.91580   0.37666   -0.14011   0.11235   0.91580   0.37666   -0.14011   95.54138
1576   0.11248   0.91525   0.37825   -0.13913   0.11248   0.91525   0.37825   -0.13913   95.45593
1577   0.11256   0.91543   0.37800   -0.13895   0.11256   0.91543   0.37800   -0.13895   95.45288
1578   0.11253   0.91501   0.37870   -0.13956   0.11253   0.91501   0.37870   -0.13956   95.49255
1579   0.11255   0.91574   0.37687   -0.13962   0.11255   0.91574   0.37687   -0.13962   95.51697
1580   0.11268   0.91601   0.37620   -0.13993   0.11268   0.91601   0.37620   -0.13993   95.45593
1581   0.11279   0.91583   0.37654   -0.14026   0.11279   0.91583   0.37654   -0.14026   95.42847
1582   0.11250   0.91537   0.37754   -0.14051   0.11250   0.91537   0.37754   -0.14051   95.46509
1583   0.11231   0.91528   0.37809   -0.14017   0.11231   0.91528   0.37809   -0.14017   95.47424
1584   0.11262   0.91488   0.37919   -0.13956   0.11262   0.91488   0.37919   -0.13956   95.42847
1585   0.11268   0.91546   0.37748   -0.14057   0.11268   0.91546   0.37748   -0.14057   95.44067
1586   0.11248   0.91549   0.37761   -0.13968   0.11248   0.91549   0.37761   -0.13968   95.48035
1587   0.11243   0.91504   0.37855   -0.14039   0.11243   0.91504   0.37855   -0.14039   95.47119
1588   0.11249   0.91507   0.37806   -0.14075   0.11249   0.91507   0.37806   -0.14075   95.44067
1589   0.11247   0.91595   0.37602   -0.14084   0.11247   0.91595   0.37602   -0.14084   95.44678
1590   0.11241   0.91540   0.37751   -0.14042   0.11241   0.91540   0.37751   -0.14042   95.50171
1591   0.11250   0.91513   0.37822   -0.14026   0.11250   0.91513   0.37822   -0.14026   95.45593
1592   0.11260   0.91476   0.37919   -0.14011   0.11260   0.91476   0.37919   -0.14011   95.41931
1593   0.11261   0.91485   0.37889   -0.14035   0.11261   0.91485   0.37889   -0.14035   95.45288
1594   0.11255   0.91562   0.37684   -0.14090   0.11255   0.91562   0.37684   -0.14090   95.48340
1595   0.11267   0.91488   0.37861   -0.14069   0.11267   0.91488   0.37861   -0.14069   95.45593
1596   0.11257   0.91540   0.37773   -0.14023   0.11257   0.91540   0.37773   -0.14023   95.45898
1597   0.11252   0.91562   0.37687   -0.14069   0.11252   0.91562   0.37687   -0.14069   95.47424
1598   0.11256   0.91543   0.37727   -0.14096   0.11256   0.91543   0.37727   -0.14096   95.48340
1599   0.11258   0.91479   0.37846   -0.14164   0.11258   0.91479   0.37846   -0.14164   95.41016
1600   0.11249   0.91540   0.37770   -0.14008   0.11249   0.91540   0.37770   -0.14008   95.44067
1601   0.11233   0.91498   0.37849   -0.14048   0.11233   0.91498   0.37849   -0.14048   95.50781
1602   0.11241   0.91549   0.37782   -0.13932   0.11241   0.91549   0.37782   -0.13932   95.43762
1603   0.11249   0.91540   0.37773   -0.13984   0.11249   0.91540   0.37773   -0.13984   95.39185
1604   0.11248   0.91519   0.37806   -0.14069   0.11248   0.91519   0.37806   -0.14069   95.42236
1605   0.11244   0.91543   0.37767   -0.14017   0.11244   0.91543   0.37767   -0.14017   95.48645
1606   0.11247   0.91504   0.37864   -0.13981   0.11247   0.91504   0.37864   -0.13981   95.44678
1607   0.11258   0.91491   0.37870   -0.14042   0.11258   0.91491   0.37870   -0.14042   95.41016
1608   0.11254   0.91552   0.37770   -0.13965   0.11254   0.91552   0.37770   -0.13965   95.43457
1609   0.11247   0.91534   0.37770   -0.14029   0.11247   0.91534   0.37770   -0.14029   95.54443
1610   0.11256   0.91540   0.37761   -0.14048   0.11256   0.91540   0.37761   -0.14048   95.41931
1611   0.11262   0.91501   0.37852   -0.14011   0.11262   0.91501   0.37852   -0.14011   95.38879
1612   0.11252   0.91510   0.37855   -0.14017   0.11252   0.91510   0.37855   -0.14017   95.44067
1613   0.11241   0.91543   0.37739   -0.14039   0.11241   0.91543   0.37739   -0.14039   95.51086
1614   0.11241   0.91498   0.37892   -0.13965   0.11241   0.91498   0.37892   -0.13965   95.40405
1615   0.11249   0.91513   0.37855   -0.13981   0.11249   0.91513   0.37855   -0.13981   95.42542
1616   0.11242   0.91498   0.37849   -0.14063   0.11242   0.91498   0.37849   -0.14063   95.44678
1617   0.11238   0.91501   0.37858   -0.14008   0.11238   0.91501   0.37858   -0.14008   95.52612
1618   0.11251   0.91479   0.37898   -0.14057   0.11251   0.91479   0.37898   -0.14057   95.43457
1619   0.11252   0.91473   0.37931   -0.14026   0.11252   0.91473   0.37931   -0.14026   95.41016
1620   0.11258   0.91470   0.37928   -0.14005   0.11258   0.91470   0.37928   -0.14005   95.48340
1621   0.11257   0.91473   0.37935   -0.14023   0.11257   0.91473   0.37935   -0.14023   95.48340
1622   0.11253   0.91455   0.37992   -0.13953   0.11253   0.91455   0.37992   -0.13953   95.42542
1623   0.11260   0.91501   0.37867   -0.13990   0.11260   0.91501   0.37867   -0.13990   95.37048
1624   0.11252   0.91507   0.37846   -0.14005   0.11252   0.91507   0.37846   -0.14005   95.47424
1625   0.11249   0.91476   0.37913   -0.14057   0.11249   0.91476   0.37913   -0.14057   95.48950
1626   0.11252   0.91452   0.37965   -0.14020   0.11252   0.91452   0.37965   -0.14020   95.40100
1627   0.11242   0.91519   0.37809   -0.14035   0.11242   0.91519   0.37809   -0.14035   95.41321
1628   0.11242   0.91485   0.37880   -0.14051   0.11242   0.91485   0.37880   -0.14051   95.45288
1629   0.11245   0.91437   0.38002   -0.14054   0.11245   0.91437   0.38002   -0.14054   95.49561
1630   0.11247   0.91418   0.38032   -0.14084   0.11247   0.91418   0.38032   -0.14084   95.41626
1631   0.11250   0.91525   0.37773   -0.14090   0.11250   0.91525   0.37773   -0.14090   95.40710
1632   0.11243   0.91501   0.37849   -0.14032   0.11243   0.91501   0.37849   -0.14032   95.47119
1633   0.11244   0.91467   0.37944   -0.13971   0.11244   0.91467   0.37944   -0.13971   95.48035
1634   0.11259   0.91501   0.37852   -0.14023   0.11259   0.91501   0.37852   -0.14023   95.41321
1635   0.11270   0.91455   0.37980   -0.13956   0.11270   0.91455   0.37980   -0.13956   95.43152
1636   0.11260   0.91440   0.37996   -0.14051   0.11260   0.91440   0.37996   -0.14051   95.47729
1637   0.11254   0.91467   0.37947   -0.14017   0.11254   0.91467   0.37947   -0.14017   95.44983
1638   0.11252   0.91461   0.37950   -0.14014   0.11252   0.91461   0.37950   -0.14014   95.42542
1639   0.11254   0.91458   0.38023   -0.13898   0.11254   0.91458   0.38023   -0.13898   95.41931
1640   0.11234   0.91482   0.37895   -0.14008   0.11234   0.91482   0.37895   -0.14008   95.45898
1641   0.11243   0.91494   0.37916   -0.13935   0.11243   0.91494   0.37916   -0.13935   95.46204
1642   0.11242   0.91482   0.37892   -0.14029   0.11242   0.91482   0.37892   -0.14029   95.44678
1643   0.11245   0.91501   0.37858   -0.14051   0.11245   0.91501   0.37858   -0.14051   95.43762
1644   0.11243   0.91479   0.37904   -0.14042   0.11243   0.91479   0.37904   -0.14042   95.47119
1645   0.11246   0.91528   0.37761   -0.14081   0.11246   0.91528   0.37761   -0.14081   95.46509
1646   0.11262   0.91415   0.38078   -0.13984   0.11262   0.91415   0.38078   -0.13984   95.42847
1647   0.11261   0.91494   0.37843   -0.14096   0.11261   0.91494   0.37843   -0.14096   95.44678
1648   0.11257   0.91449   0.37974   -0.14042   0.11257   0.91449   0.37974   -0.14042   95.45288
1649   0.11262   0.91473   0.37977   -0.13901   0.11262   0.91473   0.37977   -0.13901   95.44678
1650   0.11261   0.91464   0.37938   -0.14069   0.11261   0.91464   0.37938   -0.14069   95.44678
1651   0.11246   0.91430   0.37989   -0.14142   0.11246   0.91430   0.37989   -0.14142   95.46509
1652   0.11243   0.91452   0.37931   -0.14136   0.11243   0.91452   0.37931   -0.14136   95.44678
1653   0.11233   0.91473   0.37919   -0.14051   0.11233   0.91473   0.37919   -0.14051   95.39490
1654   0.11248   0.91458   0.37941   -0.14057   0.11248   0.91458   0.37941   -0.14057   95.40710
1655   0.11246   0.91491   0.37840   -0.14106   0.11246   0.91491   0.37840   -0.14106   95.47119
1656   0.11243   0.91470   0.37886   -0.14148   0.11243   0.91470   0.37886   -0.14148   95.42236
1657   0.11245   0.91510   0.37831   -0.14063   0.11245   0.91510   0.37831   -0.14063   95.42236
1658   0.11247   0.91464   0.37919   -0.14078   0.11247   0.91464   0.37919   -0.14078   95.42236
1659   0.11247   0.91501   0.37806   -0.14133   0.11247   0.91501   0.37806   -0.14133   95.45593
1660   0.11252   0.91476   0.37883   -0.14118   0.11252   0.91476   0.37883   -0.14118   95.39185
1661   0.11263   0.91461   0.37965   -0.14008   0.11263   0.91461   0.37965   -0.14008   95.40405
1662   0.11248   0.91473   0.37901   -0.14060   0.11248   0.91473   0.37901   -0.14060   95.44067
1663   0.11249   0.91470   0.37901   -0.14118   0.11249   0.91470   0.37901   -0.14118   95.45593
1664   0.11245   0.91446   0.37989   -0.14045   0.11245   0.91446   0.37989   -0.14045   95.43152
1665   0.11219   0.91485   0.37855   -0.14100   0.11219   0.91485   0.37855   -0.14100   95.39490
1666   0.11229   0.91467   0.37962   -0.13956   0.11229   0.91467   0.37962   -0.13956   95.47424
1667   0.11255   0.91443   0.38017   -0.13959   0.11255   0.91443   0.38017   -0.13959   95.50781
1668   0.11248   0.91519   0.37773   -0.14075   0.11248   0.91519   0.37773   -0.14075   95.38269
1669   0.11236   0.91491   0.37886   -0.14035   0.11236   0.91491   0.37886   -0.14035   95.40405
1670   0.11241   0.91491   0.37849   -0.14090   0.11241   0.91491   0.37849   -0.14090   95.51086
1671   0.11248   0.91455   0.37922   -0.14118   0.11248   0.91455   0.37922   -0.14118   95.50476
1672   0.11265   0.91494   0.37870   -0.14005   0.11265   0.91494   0.37870   -0.14005   95.43152
1673   0.11263   0.91485   0.37889   -0.14023   0.11263   0.91485   0.37889   -0.14023   95.42236
1674   0.11244   0.91476   0.37883   -0.14075   0.11244   0.91476   0.37883   -0.14075   95.50476
1675   0.11246   0.91449   0.37941   -0.14096   0.11246   0.91449   0.37941   -0.14096   95.45593
1676   0.11270   0.91452   0.37971   -0.13990   0.11270   0.91452   0.37971   -0.13990   95.40100
1677   0.11253   0.91440   0.37992   -0.14100   0.11253   0.91440   0.37992   -0.14100   95.41931
1678   0.11240   0.91528   0.37770   -0.14063   0.11240   0.91528   0.37770   -0.14063   95.49255
1679   0.11232   0.91479   0.37861   -0.14093   0.11232   0.91479   0.37861   -0.14093   95.46509
1680   0.11253   0.91501   0.37822   -0.14115   0.11253   0.91501   0.37822   -0.14115   95.37659
1681   0.11265   0.91427   0.38050   -0.13977   0.11265   0.91427   0.38050   -0.13977   95.43762
1682   0.11250   0.91485   0.37877   -0.14072   0.11250   0.91485   0.37877   -0.14072   95.49866
1683   0.11250   0.91501   0.37880   -0.14014   0.11250   0.91501   0.37880   -0.14014   95.45593
1684   0.11257   0.91473   0.37922   -0.14020   0.11257   0.91473   0.37922   -0.14020   95.40405
1685   0.11263   0.91507   0.37834   -0.14063   0.11263   0.91507   0.37834   -0.14063   95.42847
1686   0.11260   0.91430   0.38011   -0.14051   0.11260   0.91430   0.38011   -0.14051   95.44373
1687   0.11260   0.91507   0.37815   -0.14087   0.11260   0.91507   0.37815   -0.14087   95.46204
1688   0.11261   0.91482   0.37907   -0.14020   0.11261   0.91482   0.37907   -0.14020   95.42236
1689   0.11259   0.91473   0.37910   -0.14081   0.11259   0.91473   0.37910   -0.14081   95.44373
1690   0.11250   0.91516   0.37803   -0.14096   0.11250   0.91516   0.37803   -0.14096   95.46509
1691   0.11247   0.91473   0.37892   -0.14103   0.11247   0.91473   0.37892   -0.14103   95.42236
1692   0.11242   0.91498   0.37815   -0.14176   0.11242   0.91498   0.37815   -0.14176   95.39795
1693   0.11247   0.91504   0.37819   -0.14090   0.11247   0.91504   0.37819   -0.14090   95.44678
1694   0.11244   0.91504   0.37822   -0.14115   0.11244   0.91504   0.37822   -0.14115   95.46204
1695   0.11252   0.91485   0.37822   -0.14188   0.11252   0.91485   0.37822   -0.14188   95.42542
1696   0.11250   0.91476   0.37883   -0.14109   0.11250   0.91476   0.37883   -0.14109   95.43152
1697   0.11254   0.91540   0.37712   -0.14154   0.11254   0.91540   0.37712   -0.14154   95.45898
1698   0.11250   0.91507   0.37822   -0.14109   0.11250   0.91507   0.37822   -0.14109   95.47424
1699   0.11259   0.91519   0.37837   -0.13993   0.11259   0.91519   0.37837   -0.13993   95.41931
1700   0.11257   0.91528   0.37748   -0.14139   0.11257   0.91528   0.37748   -0.14139   95.42847
1701   0.11252   0.91485   0.37889   -0.14093   0.11252   0.91485   0.37889   -0.14093   95.44983
1702   0.11258   0.91528   0.37779   -0.14075   0.11258   0.91528   0.37779   -0.14075   95.45288
1703   0.11256   0.91467   0.37944   -0.14002   0.11256   0.91467   0.37944   -0.14002   95.41931
1704   0.11247   0.91488   0.37892   -0.14032   0.11247   0.91488   0.37892   -0.14032   95.39185
1705   0.11239   0.91464   0.37898   -0.14130   0.11239   0.91464   0.37898   -0.14130   95.45288
1706   0.11248   0.91531   0.37785   -0.14039   0.11248   0.91531   0.37785   -0.14039   95.44067
1707   0.11249   0.91552   0.37736   -0.13971   0.11249   0.91552   0.37736   -0.13971   95.44983
1708   0.11250   0.91525   0.37727   -0.14243   0.11250   0.91525   0.37727   -0.14243   95.44067
1709   0.11249   0.91485   0.37883   -0.14069   0.11249   0.91485   0.37883   -0.14069   95.43152
1710   0.11254   0.91513   0.37822   -0.14020   0.11254   0.91513   0.37822   -0.14020   95.43457
1711   0.11259   0.91513   0.37825   -0.14048   0.11259   0.91513   0.37825   -0.14048   95.41931
1712   0.11257   0.91510   0.37819   -0.14063   0.11257   0.91510   0.37819   -0.14063   95.44373
1713   0.11252   0.91507   0.37788   -0.14164   0.11252   0.91507   0.37788   -0.14164   95.48340
1714   0.11260   0.91537   0.37758   -0.14072   0.11260   0.91537   0.37758   -0.14072   95.41321
1715   0.11271   0.91501   0.37858   -0.13984   0.11271   0.91501   0.37858   -0.13984   95.42542
1716   0.11259   0.91452   0.37941   -0.14118   0.11259   0.91452   0.37941   -0.14118   95.46204
1717   0.11242   0.91534   0.37730   -0.14142   0.11242   0.91534   0.37730   -0.14142   95.47729
1718   0.11247   0.91510   0.37809   -0.14084   0.11247   0.91510   0.37809   -0.14084   95.39185
1719   0.11250   0.91516   0.37803   -0.14103   0.11250   0.91516   0.37803   -0.14103   95.43152
1720   0.11244   0.91504   0.37822   -0.14103   0.11244   0.91504   0.37822   -0.14103   95.47119
1721   0.11249   0.91507   0.37822   -0.14093   0.11249   0.91507   0.37822   -0.14093   95.46509
1722   0.11257   0.91525   0.37767   -0.14100   0.11257   0.91525   0.37767   -0.14100   95.40405
1723   0.11254   0.91537   0.37739   -0.14106   0.11254   0.91537   0.37739   -0.14106   95.44983
1724   0.11249   0.91504   0.37800   -0.14170   0.11249   0.91504   0.37800   -0.14170   95.51392
1725   0.11262   0.91488   0.37907   -0.13993   0.11262   0.91488   0.37907   -0.13993   95.47729
1726   0.11258   0.91525   0.37794   -0.14060   0.11258   0.91525   0.37794   -0.14060   95.37964
1727   0.11262   0.91552   0.37709   -0.14054   0.11262   0.91552   0.37709   -0.14054   95.44678
1728   0.11251   0.91488   0.37831   -0.14154   0.11251   0.91488   0.37831   -0.14154   95.46509
1729   0.11250   0.91485   0.37831   -0.14161   0.11250   0.91485   0.37831   -0.14161   95.43152
1730   0.11248   0.91525   0.37791   -0.14042   0.11248   0.91525   0.37791   -0.14042   95.42236
1731   0.11242   0.91507   0.37791   -0.14185   0.11242   0.91507   0.37791   -0.14185   95.42847
1732   0.11242   0.91531   0.37703   -0.14228   0.11242   0.91531   0.37703   -0.14228   95.52002
1733   0.11246   0.91498   0.37782   -0.14249   0.11246   0.91498   0.37782   -0.14249   95.43152
1734   0.11254   0.91540   0.37721   -0.14170   0.11254   0.91540   0.37721   -0.14170   95.41016
1735   0.11248   0.91525   0.37764   -0.14103   0.11248   0.91525   0.37764   -0.14103   95.44067
1736   0.11246   0.91479   0.37837   -0.14176   0.11246   0.91479   0.37837   -0.14176   95.51392
1737   0.11252   0.91565   0.37703   -0.14057   0.11252   0.91565   0.37703   -0.14057   95.42542
1738   0.11261   0.91549   0.37651   -0.14222   0.11261   0.91549   0.37651   -0.14222   95.41321
1739   0.11251   0.91485   0.37877   -0.14069   0.11251   0.91485   0.37877   -0.14069   95.45898
1740   0.11248   0.91525   0.37761   -0.14118   0.11248   0.91525   0.37761   -0.14118   95.48950
1741   0.11255   0.91504   0.37840   -0.14048   0.11255   0.91504   0.37840   -0.14048   95.40100
1742   0.11251   0.91507   0.37828   -0.14078   0.11251   0.91507   0.37828   -0.14078   95.44067
1743   0.11242   0.91510   0.37788   -0.14148   0.11242   0.91510   0.37788   -0.14148   95.44678
1744   0.11233   0.91513   0.37809   -0.14078   0.11233   0.91513   0.37809   -0.14078   95.48340
1745   0.11256   0.91513   0.37791   -0.14167   0.11256   0.91513   0.37791   -0.14167   95.42847
1746   0.11243   0.91482   0.37840   -0.14185   0.11243   0.91482   0.37840   -0.14185   95.42236
1747   0.11230   0.91510   0.37776   -0.14185   0.11230   0.91510   0.37776   -0.14185   95.49866
1748   0.11257   0.91501   0.37867   -0.14020   0.11257   0.91501   0.37867   -0.14020   95.47729
1749   0.11265   0.91540   0.37730   -0.14103   0.11265   0.91540   0.37730   -0.14103   95.41321
1750   0.11260   0.91549   0.37730   -0.14084   0.11260   0.91549   0.37730   -0.14084   95.41931
1751   0.11252   0.91540   0.37693   -0.14167   0.11252   0.91540   0.37693   -0.14167   95.47424
1752   0.11251   0.91537   0.37745   -0.14075   0.11251   0.91537   0.37745   -0.14075   95.44983
1753   0.11260   0.91531   0.37782   -0.14054   0.11260   0.91531   0.37782   -0.14054   95.41931
1754   0.11263   0.91568   0.37681   -0.14087   0.11263   0.91568   0.37681   -0.14087   95.45288
1755   0.11252   0.91574   0.37642   -0.14106   0.11252   0.91574   0.37642   -0.14106   95.47424
1756   0.11236   0.91528   0.37758   -0.14100   0.11236   0.91528   0.37758   -0.14100   95.47729
1757   0.11244   0.91556   0.37727   -0.14032   0.11244   0.91556   0.37727   -0.14032   95.44678
1758   0.11250   0.91528   0.37764   -0.14072   0.11250   0.91528   0.37764   -0.14072   95.44983
1759   0.11242   0.91498   0.37809   -0.14154   0.11242   0.91498   0.37809   -0.14154   95.47119
1760   0.11246   0.91491   0.37825   -0.14194   0.11246   0.91491   0.37825   -0.14194   95.41626
1761   0.11248   0.91531   0.37742   -0.14124   0.11248   0.91531   0.37742   -0.14124   95.44067
1762   0.11253   0.91516   0.37751   -0.14194   0.11253   0.91516   0.37751   -0.14194   95.43457
1763   0.11248   0.91549   0.37690   -0.14127   0.11248   0.91549   0.37690   -0.14127   95.49561
1764   0.11262   0.91577   0.37642   -0.14130   0.11262   0.91577   0.37642   -0.14130   95.41321
1765   0.11275   0.91540   0.37727   -0.14090   0.11275   0.91540   0.37727   -0.14090   95.44373
1766   0.11258   0.91510   0.37751   -0.14234   0.11258   0.91510   0.37751   -0.14234   95.42847
1767   0.11234   0.91565   0.37642   -0.14167   0.11234   0.91565   0.37642   -0.14167   95.45898
1768   0.11248   0.91534   0.37745   -0.14078   0.11248   0.91534   0.37745   -0.14078   95.41626
1769   0.11251   0.91534   0.37776   -0.14042   0.11251   0.91534   0.37776   -0.14042   95.44983
1770   0.11248   0.91577   0.37657   -0.14096   0.11248   0.91577   0.37657   -0.14096   95.48035
1771   0.11243   0.91513   0.37794   -0.14103   0.11243   0.91513   0.37794   -0.14103   95.46204
1772   0.11242   0.91559   0.37718   -0.14029   0.11242   0.91559   0.37718   -0.14029   95.39795
1773   0.11250   0.91549   0.37666   -0.14231   0.11250   0.91549   0.37666   -0.14231   95.45593
1774   0.11247   0.91498   0.37761   -0.14277   0.11247   0.91498   0.37761   -0.14277   95.50476
1775   0.11252   0.91534   0.37742   -0.14118   0.11252   0.91534   0.37742   -0.14118   95.46509
1776   0.11252   0.91485   0.37855   -0.14133   0.11252   0.91485   0.37855   -0.14133   95.40100
1777   0.11250   0.91549   0.37736   -0.14042   0.11250   0.91549   0.37736   -0.14042   95.47424
1778   0.11250   0.91531   0.37718   -0.14170   0.11250   0.91531   0.37718   -0.14170   95.47424
1779   0.11256   0.91519   0.37791   -0.14087   0.11256   0.91519   0.37791   -0.14087   95.43457
1780   0.11266   0.91543   0.37742   -0.14014   0.11266   0.91543   0.37742   -0.14014   95.39795
1781   0.11266   0.91562   0.37687   -0.14112   0.11266   0.91562   0.37687   -0.14112   95.44678
1782   0.11221   0.91543   0.37715   -0.14133   0.11221   0.91543   0.37715   -0.14133   95.53528
1783   0.11225   0.91476   0.37922   -0.14005   0.11225   0.91476   0.37922   -0.14005   95.43762
1784   0.11257   0.91507   0.37846   -0.13996   0.11257   0.91507   0.37846   -0.13996   95.45288
1785   0.11252   0.91540   0.37693   -0.14167   0.11252   0.91540   0.37693   -0.14167   95.47424
1786   0.11234   0.91568   0.37645   -0.14176   0.11234   0.91568   0.37645   -0.14176   95.52307
1787   0.11250   0.91507   0.37834   -0.14014   0.11250   0.91507   0.37834   -0.14014   95.41626
1788   0.11265   0.91513   0.37828   -0.14020   0.11265   0.91513   0.37828   -0.14020   95.42236
1789   0.11252   0.91519   0.37800   -0.14054   0.11252   0.91519   0.37800   -0.14054   95.48340
1790   0.11245   0.91556   0.37684   -0.14096   0.11245   0.91556   0.37684   -0.14096   95.51086
1791   0.11252   0.91592   0.37651   -0.14029   0.11252   0.91592   0.37651   -0.14029   95.43457
1792   0.11258   0.91571   0.37672   -0.14115   0.11258   0.91571   0.37672   -0.14115   95.40405
1793   0.11259   0.91522   0.37776   -0.14090   0.11259   0.91522   0.37776   -0.14090   95.50171
1794   0.11242   0.91610   0.37550   -0.14118   0.11242   0.91610   0.37550   -0.14118   95.51086
1795   0.11242   0.91583   0.37635   -0.14093   0.11242   0.91583   0.37635   -0.14093   95.42236
1796   0.11258   0.91534   0.37776   -0.14035   0.11258   0.91534   0.37776   -0.14035   95.41931
1797   0.11241   0.91546   0.37693   -0.14209   0.11241   0.91546   0.37693   -0.14209   95.47729
1798   0.11242   0.91543   0.37663   -0.14270   0.11242   0.91543   0.37663   -0.14270   95.50171
1799   0.11251   0.91571   0.37617   -0.14237   0.11251   0.91571   0.37617   -0.14237   95.40100
1800   0.11264   0.91568   0.37660   -0.14121   0.11264   0.91568   0.37660   -0.14121   95.42236
1801   0.11246   0.91543   0.37715   -0.14151   0.11246   0.91543   0.37715   -0.14151   95.48035
1802   0.11248   0.91589   0.37580   -0.14127   0.11248   0.91589   0.37580   -0.14127   95.50476
1803   0.11261   0.91583   0.37602   -0.14176   0.11261   0.91583   0.37602   -0.14176   95.42847
1804   0.11257   0.91568   0.37623   -0.14206   0.11257   0.91568   0.37623   -0.14206   95.41931
1805   0.11252   0.91562   0.37623   -0.14267   0.11252   0.91562   0.37623   -0.14267   95.47424
1806   0.11251   0.91522   0.37675   -0.14328   0.11251   0.91522   0.37675   -0.14328   95.47424
1807   0.11252   0.91534   0.37758   -0.14072   0.11252   0.91534   0.37758   -0.14072   95.41626
1808   0.11251   0.91433   0.37968   -0.14142   0.11251   0.91433   0.37968   -0.14142   95.42542
1809   0.11244   0.91516   0.37773   -0.14115   0.11244   0.91516   0.37773   -0.14115   95.47119
1810   0.11240   0.91476   0.37825   -0.14219   0.11240   0.91476   0.37825   -0.14219   95.46204
1811   0.11249   0.91540   0.37715   -0.14124   0.11249   0.91540   0.37715   -0.14124   95.42542
1812   0.11251   0.91562   0.37626   -0.14219   0.11251   0.91562   0.37626   -0.14219   95.44067
1813   0.11246   0.91552   0.37626   -0.14267   0.11246   0.91552   0.37626   -0.14267   95.49561
1814   0.11252   0.91540   0.37721   -0.14139   0.11252   0.91540   0.37721   -0.14139   95.47424
1815   0.11252   0.91574   0.37632   -0.14106   0.11252   0.91574   0.37632   -0.14106   95.46509
1816   0.11255   0.91549   0.37712   -0.14096   0.11255   0.91549   0.37712   -0.14096   95.45898
1817   0.11251   0.91543   0.37709   -0.14179   0.11251   0.91543   0.37709   -0.14179   95.46509
1818   0.11254   0.91534   0.37727   -0.14161   0.11254   0.91534   0.37727   -0.14161   95.45898
1819   0.11256   0.91568   0.37623   -0.14231   0.11256   0.91568   0.37623   -0.14231   95.42847
1820   0.11250   0.91507   0.37785   -0.14188   0.11250   0.91507   0.37785   -0.14188   95.43152
1821   0.11236   0.91525   0.37724   -0.14176   0.11236   0.91525   0.37724   -0.14176   95.47729
1822   0.11248   0.91537   0.37703   -0.14212   0.11248   0.91537   0.37703   -0.14212   95.43152
1823   0.11247   0.91473   0.37791   -0.14353   0.11247   0.91473   0.37791   -0.14353   95.44067
1824   0.11245   0.91610   0.37529   -0.14216   0.11245   0.91610   0.37529   -0.14216   95.48035
1825   0.11248   0.91540   0.37672   -0.14240   0.11248   0.91540   0.37672   -0.14240   95.46509
1826   0.11259   0.91540   0.37666   -0.14216   0.11259   0.91540   0.37666   -0.14216   95.42847
1827   0.11252   0.91586   0.37562   -0.14231   0.11252   0.91586   0.37562   -0.14231   95.49866
1828   0.11252   0.91552   0.37657   -0.14206   0.11252   0.91552   0.37657   -0.14206   95.49866
1829   0.11259   0.91604   0.37547   -0.14179   0.11259   0.91604   0.37547   -0.14179   95.44373
1830   0.11263   0.91568   0.37623   -0.14197   0.11263   0.91568   0.37623   -0.14197   95.37354
1831   0.11256   0.91610   0.37529   -0.14148   0.11256   0.91610   0.37529   -0.14148   95.47729
1832   0.11250   0.91565   0.37693   -0.13984   0.11250   0.91565   0.37693   -0.13984   95.50476
1833   0.11249   0.91595   0.37565   -0.14145   0.11249   0.91595   0.37565   -0.14145   95.44983
1834   0.11238   0.91546   0.37730   -0.14078   0.11238   0.91546   0.37730   -0.14078   95.44373
1835   0.11245   0.91601   0.37544   -0.14203   0.11245   0.91601   0.37544   -0.14203   95.49561
1836   0.11247   0.91574   0.37651   -0.14072   0.11247   0.91574   0.37651   -0.14072   95.52917
1837   0.11251   0.91568   0.37642   -0.14124   0.11251   0.91568   0.37642   -0.14124   95.42542
1838   0.11251   0.91565   0.37666   -0.14118   0.11251   0.91565   0.37666   -0.14118   95.43457
1839   0.11252   0.91632   0.37519   -0.14121   0.11252   0.91632   0.37519   -0.14121   95.47424
1840   0.11245   0.91580   0.37629   -0.14133   0.11245   0.91580   0.37629   -0.14133   95.52917
1841   0.11259   0.91556   0.37678   -0.14154   0.11259   0.91556   0.37678   -0.14154   95.39490
1842   0.11263   0.91589   0.37587   -0.14161   0.11263   0.91589   0.37587   -0.14161   95.42847
1843   0.11252   0.91571   0.37623   -0.14222   0.11252   0.91571   0.37623   -0.14222   95.50781
1844   0.11252   0.91574   0.37614   -0.14222   0.11252   0.91574   0.37614   -0.14222   95.50781
1845   0.11256   0.91565   0.37642   -0.14164   0.11256   0.91565   0.37642   -0.14164   95.43457
1846   0.11255   0.91623   0.37474   -0.14237   0.11255   0.91623   0.37474   -0.14237   95.44373
1847   0.11251   0.91592   0.37580   -0.14115   0.11251   0.91592   0.37580   -0.14115   95.50781
1848   0.11255   0.91635   0.37483   -0.14151   0.11255   0.91635   0.37483   -0.14151   95.49255
1849   0.11248   0.91592   0.37587   -0.14167   0.11248   0.91592   0.37587   -0.14167   95.41626
1850   0.11250   0.91592   0.37642   -0.14042   0.11250   0.91592   0.37642   -0.14042   95.44983
1851   0.11241   0.91583   0.37660   -0.14069   0.11241   0.91583   0.37660   -0.14069   95.50171
1852   0.11247   0.91653   0.37452   -0.14130   0.11247   0.91653   0.37452   -0.14130   95.48950
1853   0.11257   0.91607   0.37565   -0.14115   0.11257   0.91607   0.37565   -0.14115   95.39490
1854   0.11255   0.91656   0.37443   -0.14081   0.11255   0.91656   0.37443   -0.14081   95.49255
1855   0.11245   0.91592   0.37608   -0.14100   0.11245   0.91592   0.37608   -0.14100   95.53528
1856   0.11250   0.91623   0.37507   -0.14142   0.11250   0.91623   0.37507   -0.14142   95.49866
1857   0.11262   0.91641   0.37449   -0.14170   0.11262   0.91641   0.37449   -0.14170   95.43762
1858   0.11252   0.91574   0.37590   -0.14216   0.11252   0.91574   0.37590   -0.14216   95.46509
1859   0.11241   0.91607   0.37556   -0.14136   0.11241   0.91607   0.37556   -0.14136   95.53528
1860   0.11236   0.91565   0.37663   -0.14158   0.11236   0.91565   0.37663   -0.14158   95.46814
1861   0.11250   0.91623   0.37532   -0.14109   0.11250   0.91623   0.37532   -0.14109   95.44983
1862   0.11242   0.91610   0.37593   -0.14032   0.11242   0.91610   0.37593   -0.14032   95.46204
1863   0.11240   0.91598   0.37574   -0.14133   0.11240   0.91598   0.37574   -0.14133   95.53528
1864   0.11238   0.91623   0.37498   -0.14182   0.11238   0.91623   0.37498   -0.14182   95.44373
1865   0.11225   0.91583   0.37629   -0.14109   0.11225   0.91583   0.37629   -0.14109   95.46204
1866   0.11252   0.91620   0.37538   -0.14078   0.11252   0.91620   0.37538   -0.14078   95.50781
1867   0.11264   0.91629   0.37526   -0.14093   0.11264   0.91629   0.37526   -0.14093   95.48645
1868   0.11257   0.91571   0.37648   -0.14154   0.11257   0.91571   0.37648   -0.14154   95.41016
1869   0.11249   0.91580   0.37632   -0.14066   0.11249   0.91580   0.37632   -0.14066   95.44983
1870   0.11246   0.91644   0.37495   -0.14087   0.11246   0.91644   0.37495   -0.14087   95.48950
1871   0.11245   0.91537   0.37712   -0.14158   0.11245   0.91537   0.37712   -0.14158   95.48645
1872   0.11254   0.91571   0.37666   -0.14087   0.11254   0.91571   0.37666   -0.14087   95.46814
1873   0.11239   0.91589   0.37559   -0.14222   0.11239   0.91589   0.37559   -0.14222   95.45288
1874   0.11242   0.91629   0.37440   -0.14316   0.11242   0.91629   0.37440   -0.14316   95.48645
1875   0.11240   0.91592   0.37602   -0.14115   0.11240   0.91592   0.37602   -0.14115   95.46814
1876   0.11259   0.91595   0.37614   -0.14020   0.11259   0.91595   0.37614   -0.14020   95.46814
1877   0.11248   0.91647   0.37495   -0.14087   0.11248   0.91647   0.37495   -0.14087   95.48035
1878   0.11250   0.91562   0.37638   -0.14216   0.11250   0.91562   0.37638   -0.14216   95.48035
1879   0.11251   0.91577   0.37638   -0.14109   0.11251   0.91577   0.37638   -0.14109   95.46509
1880   0.11260   0.91638   0.37513   -0.14060   0.11260   0.91638   0.37513   -0.14060   95.43762
1881   0.11263   0.91565   0.37635   -0.14231   0.11263   0.91565   0.37635   -0.14231   95.47729
1882   0.11261   0.91693   0.37355   -0.14057   0.11261   0.91693   0.37355   -0.14057   95.51697
1883   0.11266   0.91617   0.37602   -0.14020   0.11266   0.91617   0.37602   -0.14020   95.45593
1884   0.11260   0.91641   0.37492   -0.14103   0.11260   0.91641   0.37492   -0.14103   95.43762
1885   0.11254   0.91671   0.37410   -0.14087   0.11254   0.91671   0.37410   -0.14087   95.50781
1886   0.11243   0.91635   0.37504   -0.14090   0.11243   0.91635   0.37504   -0.14090   95.53528
1887   0.11258   0.91614   0.37571   -0.14069   0.11258   0.91614   0.37571   -0.14069   95.44373
1888   0.11250   0.91641   0.37504   -0.14051   0.11250   0.91641   0.37504   -0.14051   95.44983
1889   0.11248   0.91635   0.37471   -0.14164   0.11248   0.91635   0.37471   -0.14164   95.50476
1890   0.11252   0.91604   0.37510   -0.14231   0.11252   0.91604   0.37510   -0.14231   95.52307
1891   0.11260   0.91681   0.37391   -0.14069   0.11260   0.91681   0.37391   -0.14069   95.46814
1892   0.11254   0.91650   0.37498   -0.14002   0.11254   0.91650   0.37498   -0.14002   95.43457
1893   0.11264   0.91617   0.37519   -0.14139   0.11264   0.91617   0.37519   -0.14139   95.52002
1894   0.11254   0.91607   0.37535   -0.14194   0.11254   0.91607   0.37535   -0.14194   95.52307
1895   0.11265   0.91641   0.37483   -0.14118   0.11265   0.91641   0.37483   -0.14118   95.39795
1896   0.11262   0.91632   0.37471   -0.14228   0.11262   0.91632   0.37471   -0.14228   95.43762
1897   0.11249   0.91635   0.37486   -0.14118   0.11249   0.91635   0.37486   -0.14118   95.51392
1898   0.11243   0.91681   0.37373   -0.14194   0.11243   0.91681   0.37373   -0.14194   95.50476
1899   0.11244   0.91644   0.37465   -0.14167   0.11244   0.91644   0.37465   -0.14167   95.40710
1900   0.11248   0.91675   0.37413   -0.14072   0.11248   0.91675   0.37413   -0.14072   95.48035
1901   0.11240   0.91626   0.37492   -0.14173   0.11240   0.91626   0.37492   -0.14173   95.51086
1902   0.11245   0.91626   0.37571   -0.13962   0.11245   0.91626   0.37571   -0.13962   95.50476
1903   0.11252   0.91678   0.37434   -0.14039   0.11252   0.91678   0.37434   -0.14039   95.41626
1904   0.11253   0.91650   0.37437   -0.14148   0.11253   0.91650   0.37437   -0.14148   95.46814
1905   0.11240   0.91632   0.37498   -0.14127   0.11240   0.91632   0.37498   -0.14127   95.55054
1906   0.11252   0.91665   0.37419   -0.14164   0.11252   0.91665   0.37419   -0.14164   95.48950
1907   0.11261   0.91681   0.37373   -0.14145   0.11261   0.91681   0.37373   -0.14145   95.41321
1908   0.11257   0.91699   0.37364   -0.14032   0.11257   0.91699   0.37364   -0.14032   95.46814
1909   0.11249   0.91665   0.37407   -0.14161   0.11249   0.91665   0.37407   -0.14161   95.50476
1910   0.11248   0.91662   0.37461   -0.14072   0.11248   0.91662   0.37461   -0.14072   95.48950
1911   0.11252   0.91641   0.37513   -0.14069   0.11252   0.91641   0.37513   -0.14069   95.40100
1912   0.11245   0.91614   0.37556   -0.14078   0.11245   0.91614   0.37556   -0.14078   95.48035
1913   0.11242   0.91656   0.37422   -0.14151   0.11242   0.91656   0.37422   -0.14151   95.53528
1914   0.11245   0.91656   0.37431   -0.14148   0.11245   0.91656   0.37431   -0.14148   95.48645
1915   0.11251   0.91659   0.37452   -0.14106   0.11251   0.91659   0.37452   -0.14106   95.43457
1916   0.11246   0.91675   0.37349   -0.14225   0.11246   0.91675   0.37349   -0.14225   95.48950
1917   0.11244   0.91665   0.37379   -0.14231   0.11244   0.91665   0.37379   -0.14231   95.54443
1918   0.11252   0.91668   0.37403   -0.14133   0.11252   0.91668   0.37403   -0.14133   95.48950
1919   0.11262   0.91675   0.37391   -0.14148   0.11262   0.91675   0.37391   -0.14148   95.44678
1920   0.11254   0.91659   0.37434   -0.14158   0.11254   0.91659   0.37434   -0.14158   95.47424
1921   0.11250   0.91684   0.37382   -0.14112   0.11250   0.91684   0.37382   -0.14112   95.53833
1922   0.11254   0.91662   0.37419   -0.14151   0.11254   0.91662   0.37419   -0.14151   95.46814
1923   0.11255   0.91656   0.37400   -0.14243   0.11255   0.91656   0.37400   -0.14243   95.44983
1924   0.11242   0.91635   0.37449   -0.14249   0.11242   0.91635   0.37449   -0.14249   95.48645
1925   0.11232   0.91665   0.37425   -0.14100   0.11232   0.91665   0.37425   -0.14100   95.53223
1926   0.11247   0.91675   0.37394   -0.14148   0.11247   0.91675   0.37394   -0.14148   95.45593
1927   0.11244   0.91638   0.37480   -0.14145   0.11244   0.91638   0.37480   -0.14145   95.46204
1928   0.11243   0.91702   0.37297   -0.14197   0.11243   0.91702   0.37297   -0.14197   95.50476
1929   0.11246   0.91656   0.37428   -0.14139   0.11246   0.91656   0.37428   -0.14139   95.50476
1930   0.11263   0.91629   0.37516   -0.14124   0.11263   0.91629   0.37516   -0.14124   95.45288
1931   0.11252   0.91662   0.37477   -0.14032   0.11252   0.91662   0.37477   -0.14032   95.44983
1932   0.11250   0.91656   0.37434   -0.14179   0.11250   0.91656   0.37434   -0.14179   95.48950
1933   0.11252   0.91589   0.37538   -0.14237   0.11252   0.91589   0.37538   -0.14237   95.46509
1934   0.11262   0.91656   0.37452   -0.14103   0.11262   0.91656   0.37452   -0.14103   95.43762
1935   0.11253   0.91681   0.37339   -0.14231   0.11253   0.91681   0.37339   -0.14231   95.48340
1936   0.11246   0.91644   0.37434   -0.14203   0.11246   0.91644   0.37434   -0.14203   95.51392
1937   0.11245   0.91678   0.37388   -0.14118   0.11245   0.91678   0.37388   -0.14118   95.45593
1938   0.11239   0.91665   0.37449   -0.14035   0.11239   0.91665   0.37449   -0.14035   95.46204
1939   0.11244   0.91684   0.37379   -0.14124   0.11244   0.91684   0.37379   -0.14124   95.52002
1940   0.11239   0.91656   0.37437   -0.14173   0.11239   0.91656   0.37437   -0.14173   95.50171
1941   0.11252   0.91647   0.37446   -0.14179   0.11252   0.91647   0.37446   -0.14179   95.42542
1942   0.11249   0.91681   0.37373   -0.14164   0.11249   0.91681   0.37373   -0.14164   95.48035
1943   0.11247   0.91604   0.37559   -0.14124   0.11247   0.91604   0.37559   -0.14124   95.52002
1944   0.11251   0.91668   0.37394   -0.14158   0.11251   0.91668   0.37394   -0.14158   95.49866
1945   0.11257   0.91659   0.37446   -0.14069   0.11257   0.91659   0.37446   -0.14069   95.44373
1946   0.11242   0.91632   0.37498   -0.14136   0.11242   0.91632   0.37498   -0.14136   95.51086
1947   0.11246   0.91665   0.37419   -0.14093   0.11246   0.91665   0.37419   -0.14093   95.50476
1948   0.11252   0.91662   0.37416   -0.14115   0.11252   0.91662   0.37416   -0.14115   95.47424
1949   0.11261   0.91675   0.37407   -0.14093   0.11261   0.91675   0.37407   -0.14093   95.42847
1950   0.11248   0.91659   0.37437   -0.14154   0.11248   0.91659   0.37437   -0.14154   95.46509
1951   0.11239   0.91714   0.37312   -0.14090   0.11239   0.91714   0.37312   -0.14090   95.55054
1952   0.11248   0.91711   0.37315   -0.14127   0.11248   0.91711   0.37315   -0.14127   95.45593
1953   0.11257   0.91708   0.37321   -0.14139   0.11257   0.91708   0.37321   -0.14139   95.42847
1954   0.11257   0.91681   0.37367   -0.14121   0.11257   0.91681   0.37367   -0.14121   95.50781
1955   0.11248   0.91699   0.37333   -0.14145   0.11248   0.91699   0.37333   -0.14145   95.54443
1956   0.11252   0.91687   0.37376   -0.14057   0.11252   0.91687   0.37376   -0.14057   95.49866
1957   0.11263   0.91687   0.37388   -0.14096   0.11263   0.91687   0.37388   -0.14096   95.42236
1958   0.11262   0.91714   0.37251   -0.14246   0.11262   0.91714   0.37251   -0.14246   95.47729
1959   0.11249   0.91705   0.37263   -0.14225   0.11249   0.91705   0.37263   -0.14225   95.53833
1960   0.11255   0.91659   0.37492   -0.13944   0.11255   0.91659   0.37492   -0.13944   95.49255
1961   0.11261   0.91687   0.37349   -0.14161   0.11261   0.91687   0.37349   -0.14161   95.40405
1962   0.11252   0.91687   0.37361   -0.14164   0.11252   0.91687   0.37361   -0.14164   95.47424
1963   0.11236   0.91675   0.37376   -0.14164   0.11236   0.91675   0.37376   -0.14164   95.55664
1964   0.11244   0.91708   0.37309   -0.14164   0.11244   0.91708   0.37309   -0.14164   95.47119
1965   0.11270   0.91671   0.37388   -0.14164   0.11270   0.91671   0.37388   -0.14164   95.44067
1966   0.11246   0.91644   0.37452   -0.14197   0.11246   0.91644   0.37452   -0.14197   95.48950
1967   0.11229   0.91690   0.37330   -0.14200   0.11229   0.91690   0.37330   -0.14200   95.52917
1968   0.11252   0.91687   0.37339   -0.14170   0.11252   0.91687   0.37339   -0.14170   95.45898
1969   0.11274   0.91739   0.37266   -0.14078   0.11274   0.91739   0.37266   -0.14078   95.44373
1970   0.11261   0.91733   0.37242   -0.14182   0.11261   0.91733   0.37242   -0.14182   95.50171
1971   0.11252   0.91665   0.37382   -0.14203   0.11252   0.91665   0.37382   -0.14203   95.51392
1972   0.11250   0.91684   0.37367   -0.14121   0.11250   0.91684   0.37367   -0.14121   95.45593
1973   0.11261   0.91638   0.37434   -0.14219   0.11261   0.91638   0.37434   -0.14219   95.44678
1974   0.11257   0.91675   0.37321   -0.14277   0.11257   0.91675   0.37321   -0.14277   95.50781
1975   0.11250   0.91665   0.37407   -0.14158   0.11250   0.91665   0.37407   -0.14158   95.48035
1976   0.11243   0.91671   0.37388   -0.14182   0.11243   0.91671   0.37388   -0.14182   95.45593
1977   0.11246   0.91690   0.37303   -0.14292   0.11246   0.91690   0.37303   -0.14292   95.45593
1978   0.11242   0.91671   0.37364   -0.14240   0.11242   0.91671   0.37364   -0.14240   95.51086
1979   0.11244   0.91656   0.37394   -0.14206   0.11244   0.91656   0.37394   -0.14206   95.49561
1980   0.11264   0.91693   0.37385   -0.14032   0.11264   0.91693   0.37385   -0.14032   95.48645
1981   0.11270   0.91690   0.37318   -0.14179   0.11270   0.91690   0.37318   -0.14179   95.48950
1982   0.11242   0.91668   0.37413   -0.14148   0.11242   0.91668   0.37413   -0.14148   95.52612
1983   0.11236   0.91653   0.37461   -0.14075   0.11236   0.91653   0.37461   -0.14075   95.49255
1984   0.11272   0.91675   0.37355   -0.14212   0.11272   0.91675   0.37355   -0.14212   95.48950
1985   0.11264   0.91659   0.37355   -0.14274   0.11264   0.91659   0.37355   -0.14274   95.49561
1986   0.11252   0.91696   0.37339   -0.14087   0.11252   0.91696   0.37339   -0.14087   95.51392
1987   0.11245   0.91699   0.37352   -0.14090   0.11245   0.91699   0.37352   -0.14090   95.48035
1988   0.11249   0.91668   0.37373   -0.14188   0.11249   0.91668   0.37373   -0.14188   95.48950
1989   0.11237   0.91705   0.37327   -0.14124   0.11237   0.91705   0.37327   -0.14124   95.50781
1990   0.11238   0.91720   0.37260   -0.14148   0.11238   0.91720   0.37260   -0.14148   95.52612
1991   0.11247   0.91696   0.37349   -0.14109   0.11247   0.91696   0.37349   -0.14109   95.48035
1992   0.11246   0.91726   0.37196   -0.14267   0.11246   0.91726   0.37196   -0.14267   95.52002
1993   0.11246   0.91723   0.37245   -0.14219   0.11246   0.91723   0.37245   -0.14219   95.52002
1994   0.11245   0.91714   0.37288   -0.14176   0.11245   0.91714   0.37288   -0.14176   95.50476
1995   0.11261   0.91733   0.37239   -0.14173   0.11261   0.91733   0.37239   -0.14173   95.43762
1996   0.11253   0.91696   0.37321   -0.14154   0.11253   0.91696   0.37321   -0.14154   95.47424
1997   0.11256   0.91739   0.37214   -0.14167   0.11256   0.91739   0.37214   -0.14167   95.49255
1998   0.11258   0.91714   0.37321   -0.14121   0.11258   0.91714   0.37321   -0.14121   95.48340
1999   0.11264   0.91687   0.37336   -0.14191   0.11264   0.91687   0.37336   -0.14191   95.46204
2000   0.11254   0.91671   0.37349   -0.14255   0.11254   0.91671   0.37349   -0.14255   95.49255
