Sampling rate: 10000.000 samples/sec
Screen size: 2000 samples
DOP average: 1 SOPsamples
Start time: 15:53:54 5/20/2021
Interval: 0.000100000 sec
(Waveform type: 1,3,4,5)
Index      S0(mW)      S1      S2      S3      S0(mW)      S1      S2      S3      DOP
1   0.06030   0.04166   0.99866   -0.03348   0.06030   0.04166   0.99866   -0.03348   97.32666
2   0.06033   0.04273   0.99872   -0.03333   0.06033   0.04273   0.99872   -0.03333   97.29614
3   0.06049   0.04285   0.99875   -0.03351   0.06049   0.04285   0.99875   -0.03351   97.27478
4   0.06054   0.04324   0.99878   -0.03378   0.06054   0.04324   0.99878   -0.03378   97.15576
5   0.06040   0.04151   0.99875   -0.03421   0.06040   0.04151   0.99875   -0.03421   97.25342
6   0.06038   0.04303   0.99866   -0.03391   0.06038   0.04303   0.99866   -0.03391   97.46704
7   0.06052   0.04279   0.99869   -0.03369   0.06052   0.04279   0.99869   -0.03369   97.14050
8   0.06046   0.04215   0.99875   -0.03253   0.06046   0.04215   0.99875   -0.03253   97.21069
9   0.06031   0.04239   0.99872   -0.03366   0.06031   0.04239   0.99872   -0.03366   97.37244
10   0.06035   0.04221   0.99863   -0.03366   0.06035   0.04221   0.99863   -0.03366   97.29919
11   0.06045   0.04172   0.99866   -0.03357   0.06045   0.04172   0.99866   -0.03357   97.28699
12   0.06047   0.04202   0.99869   -0.03354   0.06047   0.04202   0.99869   -0.03354   97.18323
13   0.06040   0.04233   0.99863   -0.03293   0.06040   0.04233   0.99863   -0.03293   97.31445
14   0.06045   0.04215   0.99869   -0.03375   0.06045   0.04215   0.99869   -0.03375   97.42432
15   0.06052   0.04233   0.99866   -0.03433   0.06052   0.04233   0.99866   -0.03433   97.21375
16   0.06052   0.04276   0.99863   -0.03391   0.06052   0.04276   0.99863   -0.03391   97.18323
17   0.06044   0.04135   0.99866   -0.03348   0.06044   0.04135   0.99866   -0.03348   97.34802
18   0.06048   0.04184   0.99878   -0.03415   0.06048   0.04184   0.99878   -0.03415   97.48535
19   0.06053   0.04236   0.99866   -0.03452   0.06053   0.04236   0.99866   -0.03452   97.20154
20   0.06043   0.04221   0.99863   -0.03394   0.06043   0.04221   0.99863   -0.03394   97.42126
21   0.06035   0.04242   0.99866   -0.03385   0.06035   0.04242   0.99866   -0.03385   97.29919
22   0.06046   0.04184   0.99866   -0.03427   0.06046   0.04184   0.99866   -0.03427   97.30225
23   0.06048   0.04263   0.99872   -0.03473   0.06048   0.04263   0.99872   -0.03473   97.21375
24   0.06043   0.04242   0.99866   -0.03363   0.06043   0.04242   0.99866   -0.03363   97.16492
25   0.06040   0.04163   0.99869   -0.03418   0.06040   0.04163   0.99869   -0.03418   97.29919
26   0.06047   0.04218   0.99863   -0.03354   0.06047   0.04218   0.99863   -0.03354   97.21375
27   0.06047   0.04309   0.99863   -0.03430   0.06047   0.04309   0.99863   -0.03430   97.31750
28   0.06047   0.04282   0.99875   -0.03473   0.06047   0.04282   0.99875   -0.03473   97.22900
29   0.06040   0.04141   0.99869   -0.03378   0.06040   0.04141   0.99869   -0.03378   97.45178
30   0.06049   0.04263   0.99875   -0.03330   0.06049   0.04263   0.99875   -0.03330   97.27478
31   0.06045   0.04193   0.99863   -0.03436   0.06045   0.04193   0.99863   -0.03436   97.33276
32   0.06038   0.04209   0.99863   -0.03449   0.06038   0.04209   0.99863   -0.03449   97.23816
33   0.06035   0.04215   0.99866   -0.03336   0.06035   0.04215   0.99866   -0.03336   97.40295
34   0.06046   0.04196   0.99875   -0.03406   0.06046   0.04196   0.99875   -0.03406   97.18018
35   0.06047   0.04386   0.99863   -0.03397   0.06047   0.04386   0.99863   -0.03397   97.10693
36   0.06041   0.04196   0.99872   -0.03507   0.06041   0.04196   0.99872   -0.03507   97.31445
37   0.06043   0.04135   0.99869   -0.03348   0.06043   0.04135   0.99869   -0.03348   97.37854
38   0.06048   0.04239   0.99869   -0.03412   0.06048   0.04239   0.99869   -0.03412   97.21375
39   0.06044   0.04248   0.99872   -0.03412   0.06044   0.04248   0.99872   -0.03412   97.36328
40   0.06043   0.04218   0.99863   -0.03424   0.06043   0.04218   0.99863   -0.03424   97.39380
41   0.06049   0.04199   0.99869   -0.03314   0.06049   0.04199   0.99869   -0.03314   97.29004
42   0.06047   0.04126   0.99866   -0.03369   0.06047   0.04126   0.99866   -0.03369   97.24121
43   0.06043   0.04263   0.99875   -0.03516   0.06043   0.04263   0.99875   -0.03516   97.30225
44   0.06035   0.04251   0.99875   -0.03497   0.06035   0.04251   0.99875   -0.03497   97.34497
45   0.06047   0.04215   0.99878   -0.03345   0.06047   0.04215   0.99878   -0.03345   97.16797
46   0.06042   0.04215   0.99866   -0.03314   0.06042   0.04215   0.99866   -0.03314   97.30225
47   0.06036   0.04227   0.99875   -0.03436   0.06036   0.04227   0.99875   -0.03436   97.49451
48   0.06045   0.04248   0.99875   -0.03433   0.06045   0.04248   0.99875   -0.03433   97.21069
49   0.06050   0.04218   0.99866   -0.03372   0.06050   0.04218   0.99866   -0.03372   97.18323
50   0.06046   0.04187   0.99875   -0.03388   0.06046   0.04187   0.99875   -0.03388   97.25647
51   0.06046   0.04294   0.99869   -0.03452   0.06046   0.04294   0.99869   -0.03452   97.30225
52   0.06047   0.04212   0.99866   -0.03253   0.06047   0.04212   0.99866   -0.03253   97.36328
53   0.06054   0.04221   0.99875   -0.03333   0.06054   0.04221   0.99875   -0.03333   97.23206
54   0.06047   0.04300   0.99863   -0.03378   0.06047   0.04300   0.99863   -0.03378   97.28699
55   0.06038   0.04205   0.99866   -0.03427   0.06038   0.04205   0.99866   -0.03427   97.40601
56   0.06038   0.04157   0.99875   -0.03339   0.06038   0.04157   0.99875   -0.03339   97.34497
57   0.06050   0.04306   0.99869   -0.03470   0.06050   0.04306   0.99869   -0.03470   97.15271
58   0.06043   0.04276   0.99863   -0.03433   0.06043   0.04276   0.99863   -0.03433   97.33276
59   0.06037   0.04230   0.99866   -0.03485   0.06037   0.04230   0.99866   -0.03485   97.40601
60   0.06049   0.04135   0.99869   -0.03418   0.06049   0.04135   0.99869   -0.03418   97.24426
61   0.06052   0.04212   0.99869   -0.03333   0.06052   0.04212   0.99869   -0.03333   97.16797
62   0.06041   0.04105   0.99875   -0.03452   0.06041   0.04105   0.99875   -0.03452   97.36023
63   0.06041   0.04224   0.99872   -0.03375   0.06041   0.04224   0.99872   -0.03375   97.40601
64   0.06050   0.04227   0.99863   -0.03494   0.06050   0.04227   0.99863   -0.03494   97.16797
65   0.06052   0.04224   0.99866   -0.03433   0.06052   0.04224   0.99866   -0.03433   97.29004
66   0.06045   0.04230   0.99869   -0.03433   0.06045   0.04230   0.99869   -0.03433   97.34802
67   0.06038   0.04175   0.99866   -0.03449   0.06038   0.04175   0.99866   -0.03449   97.34497
68   0.06043   0.04334   0.99875   -0.03378   0.06043   0.04334   0.99875   -0.03378   97.24121
69   0.06047   0.04218   0.99878   -0.03525   0.06047   0.04218   0.99878   -0.03525   97.22900
70   0.06040   0.04169   0.99872   -0.03479   0.06040   0.04169   0.99872   -0.03479   97.29919
71   0.06042   0.04309   0.99869   -0.03421   0.06042   0.04309   0.99869   -0.03421   97.31750
72   0.06048   0.04276   0.99863   -0.03412   0.06048   0.04276   0.99863   -0.03412   97.24426
73   0.06052   0.04126   0.99878   -0.03470   0.06052   0.04126   0.99878   -0.03470   97.19849
74   0.06042   0.04089   0.99869   -0.03421   0.06042   0.04089   0.99869   -0.03421   97.37549
75   0.06043   0.04193   0.99866   -0.03262   0.06043   0.04193   0.99866   -0.03262   97.48230
76   0.06052   0.04239   0.99878   -0.03455   0.06052   0.04239   0.99878   -0.03455   97.18323
77   0.06047   0.04251   0.99872   -0.03455   0.06047   0.04251   0.99872   -0.03455   97.16797
78   0.06025   0.04196   0.99878   -0.03378   0.06025   0.04196   0.99878   -0.03378   97.38464
79   0.06030   0.04123   0.99875   -0.03360   0.06030   0.04123   0.99875   -0.03360   97.41821
80   0.06047   0.04196   0.99869   -0.03488   0.06047   0.04196   0.99869   -0.03488   97.21375
81   0.06043   0.04227   0.99872   -0.03485   0.06043   0.04227   0.99872   -0.03485   97.34802
82   0.06040   0.04266   0.99866   -0.03473   0.06040   0.04266   0.99866   -0.03473   97.31445
83   0.06039   0.04163   0.99872   -0.03369   0.06039   0.04163   0.99872   -0.03369   97.36023
84   0.06048   0.04151   0.99869   -0.03427   0.06048   0.04151   0.99869   -0.03427   97.21375
85   0.06049   0.04190   0.99869   -0.03436   0.06049   0.04190   0.99869   -0.03436   97.29004
86   0.06047   0.04230   0.99866   -0.03464   0.06047   0.04230   0.99866   -0.03464   97.40906
87   0.06053   0.04270   0.99869   -0.03421   0.06053   0.04270   0.99869   -0.03421   97.30530
88   0.06047   0.04151   0.99863   -0.03348   0.06047   0.04151   0.99863   -0.03348   97.34802
89   0.06049   0.04239   0.99869   -0.03412   0.06049   0.04239   0.99869   -0.03412   97.19849
90   0.06047   0.04270   0.99869   -0.03461   0.06047   0.04270   0.99869   -0.03461   97.24426
91   0.06042   0.04251   0.99866   -0.03342   0.06042   0.04251   0.99866   -0.03342   97.25647
92   0.06042   0.04270   0.99869   -0.03412   0.06042   0.04270   0.99869   -0.03412   97.22595
93   0.06040   0.04199   0.99875   -0.03357   0.06040   0.04199   0.99875   -0.03357   97.29919
94   0.06044   0.04266   0.99875   -0.03372   0.06044   0.04266   0.99875   -0.03372   97.36328
95   0.06048   0.04270   0.99878   -0.03452   0.06048   0.04270   0.99878   -0.03452   97.15271
96   0.06047   0.04160   0.99869   -0.03549   0.06047   0.04160   0.99869   -0.03549   97.22900
97   0.06051   0.04166   0.99875   -0.03458   0.06051   0.04166   0.99875   -0.03458   97.44263
98   0.06052   0.04215   0.99872   -0.03372   0.06052   0.04215   0.99872   -0.03372   97.32056
99   0.06043   0.04312   0.99866   -0.03369   0.06043   0.04312   0.99866   -0.03369   97.31750
100   0.06047   0.04245   0.99869   -0.03494   0.06047   0.04245   0.99869   -0.03494   97.37854
101   0.06049   0.04260   0.99863   -0.03452   0.06049   0.04260   0.99863   -0.03452   97.37854
102   0.06056   0.04242   0.99863   -0.03372   0.06056   0.04242   0.99863   -0.03372   97.21680
103   0.06043   0.04141   0.99866   -0.03430   0.06043   0.04141   0.99866   -0.03430   97.21069
104   0.06038   0.04312   0.99869   -0.03391   0.06038   0.04312   0.99869   -0.03391   97.25342
105   0.06039   0.04202   0.99863   -0.03458   0.06039   0.04202   0.99863   -0.03458   97.34497
106   0.06052   0.04303   0.99869   -0.03409   0.06052   0.04303   0.99869   -0.03409   97.12524
107   0.06049   0.04233   0.99863   -0.03412   0.06049   0.04233   0.99863   -0.03412   97.24426
108   0.06039   0.04166   0.99863   -0.03449   0.06039   0.04166   0.99863   -0.03449   97.39075
109   0.06043   0.04294   0.99863   -0.03461   0.06043   0.04294   0.99863   -0.03461   97.28699
110   0.06055   0.04236   0.99863   -0.03433   0.06055   0.04236   0.99863   -0.03433   97.30530
111   0.06049   0.04282   0.99869   -0.03369   0.06049   0.04282   0.99869   -0.03369   97.32056
112   0.06045   0.04181   0.99863   -0.03507   0.06045   0.04181   0.99863   -0.03507   97.37854
113   0.06050   0.04187   0.99869   -0.03302   0.06050   0.04187   0.99869   -0.03302   97.45483
114   0.06052   0.04227   0.99866   -0.03351   0.06052   0.04227   0.99866   -0.03351   97.21375
115   0.06023   0.04224   0.99863   -0.03388   0.06023   0.04224   0.99863   -0.03388   97.32361
116   0.06028   0.04163   0.99863   -0.03430   0.06028   0.04163   0.99863   -0.03430   97.41516
117   0.06047   0.04233   0.99869   -0.03311   0.06047   0.04233   0.99869   -0.03311   97.37854
118   0.06049   0.04251   0.99872   -0.03290   0.06049   0.04251   0.99872   -0.03290   97.19849
119   0.06038   0.04303   0.99866   -0.03461   0.06038   0.04303   0.99866   -0.03461   97.28394
120   0.06036   0.04215   0.99866   -0.03354   0.06036   0.04215   0.99866   -0.03354   97.39075
121   0.06046   0.04178   0.99866   -0.03327   0.06046   0.04178   0.99866   -0.03327   97.30225
122   0.06052   0.04239   0.99875   -0.03363   0.06052   0.04239   0.99875   -0.03363   97.21375
123   0.06043   0.04358   0.99875   -0.03397   0.06043   0.04358   0.99875   -0.03397   97.22595
124   0.06040   0.04181   0.99869   -0.03497   0.06040   0.04181   0.99869   -0.03497   97.36023
125   0.06047   0.04102   0.99866   -0.03400   0.06047   0.04102   0.99866   -0.03400   97.21375
126   0.06045   0.04181   0.99869   -0.03336   0.06045   0.04181   0.99869   -0.03336   97.21069
127   0.06037   0.04236   0.99872   -0.03394   0.06037   0.04236   0.99872   -0.03394   97.39075
128   0.06035   0.04230   0.99866   -0.03436   0.06035   0.04230   0.99866   -0.03436   97.32971
129   0.06044   0.04154   0.99869   -0.03327   0.06044   0.04154   0.99869   -0.03327   97.21069
130   0.06048   0.04215   0.99866   -0.03406   0.06048   0.04215   0.99866   -0.03406   97.16797
131   0.06044   0.04160   0.99869   -0.03388   0.06044   0.04160   0.99869   -0.03388   97.34802
132   0.06042   0.04184   0.99875   -0.03366   0.06042   0.04184   0.99875   -0.03366   97.31750
133   0.06049   0.04245   0.99875   -0.03372   0.06049   0.04245   0.99875   -0.03372   97.29004
134   0.06050   0.04218   0.99875   -0.03455   0.06050   0.04218   0.99875   -0.03455   97.21375
135   0.06046   0.04199   0.99875   -0.03476   0.06046   0.04199   0.99875   -0.03476   97.28699
136   0.06043   0.04273   0.99872   -0.03381   0.06043   0.04273   0.99872   -0.03381   97.39380
137   0.06046   0.04218   0.99869   -0.03394   0.06046   0.04218   0.99869   -0.03394   97.25647
138   0.06038   0.04138   0.99875   -0.03400   0.06038   0.04138   0.99875   -0.03400   97.20764
139   0.06037   0.04248   0.99872   -0.03415   0.06037   0.04248   0.99872   -0.03415   97.31445
140   0.06038   0.04169   0.99869   -0.03388   0.06038   0.04169   0.99869   -0.03388   97.36023
141   0.06046   0.04209   0.99869   -0.03366   0.06046   0.04209   0.99869   -0.03366   97.22595
142   0.06044   0.04202   0.99863   -0.03436   0.06044   0.04202   0.99863   -0.03436   97.27173
143   0.06042   0.04184   0.99866   -0.03497   0.06042   0.04184   0.99866   -0.03497   97.31750
144   0.06048   0.04199   0.99866   -0.03415   0.06048   0.04199   0.99866   -0.03415   97.21375
145   0.06047   0.04224   0.99872   -0.03424   0.06047   0.04224   0.99872   -0.03424   97.28699
146   0.06046   0.04309   0.99850   -0.03540   0.06046   0.04309   0.99850   -0.03540   97.33276
147   0.06047   0.04263   0.99869   -0.03522   0.06047   0.04263   0.99869   -0.03522   97.31750
148   0.06046   0.04154   0.99866   -0.03287   0.06046   0.04154   0.99866   -0.03287   97.31750
149   0.06042   0.04187   0.99863   -0.03305   0.06042   0.04187   0.99863   -0.03305   97.27173
150   0.06035   0.04105   0.99863   -0.03424   0.06035   0.04105   0.99863   -0.03424   97.23816
151   0.06041   0.04184   0.99872   -0.03436   0.06041   0.04184   0.99872   -0.03436   97.28699
152   0.06047   0.04227   0.99866   -0.03446   0.06047   0.04227   0.99866   -0.03446   97.27173
153   0.06042   0.04184   0.99872   -0.03418   0.06042   0.04184   0.99872   -0.03418   97.27173
154   0.06039   0.04202   0.99875   -0.03397   0.06039   0.04202   0.99875   -0.03397   97.31445
155   0.06046   0.04227   0.99869   -0.03302   0.06046   0.04227   0.99869   -0.03302   97.36328
156   0.06048   0.04132   0.99866   -0.03357   0.06048   0.04132   0.99866   -0.03357   97.24426
157   0.06044   0.04248   0.99869   -0.03394   0.06044   0.04248   0.99869   -0.03394   97.34802
158   0.06042   0.04187   0.99866   -0.03467   0.06042   0.04187   0.99866   -0.03467   97.36023
159   0.06048   0.04132   0.99869   -0.03400   0.06048   0.04132   0.99869   -0.03400   97.25952
160   0.06050   0.04254   0.99869   -0.03381   0.06050   0.04254   0.99869   -0.03381   97.13745
161   0.06040   0.04242   0.99872   -0.03446   0.06040   0.04242   0.99872   -0.03446   97.23816
162   0.06031   0.04160   0.99869   -0.03430   0.06031   0.04160   0.99869   -0.03430   97.40295
163   0.06044   0.04178   0.99866   -0.03345   0.06044   0.04178   0.99866   -0.03345   97.33276
164   0.06048   0.04205   0.99872   -0.03415   0.06048   0.04205   0.99872   -0.03415   97.16797
165   0.06039   0.04172   0.99875   -0.03488   0.06039   0.04172   0.99875   -0.03488   97.36023
166   0.06037   0.04273   0.99866   -0.03485   0.06037   0.04273   0.99866   -0.03485   97.39075
167   0.06051   0.04239   0.99875   -0.03363   0.06051   0.04239   0.99875   -0.03363   97.22900
168   0.06051   0.04270   0.99863   -0.03400   0.06051   0.04270   0.99863   -0.03400   97.16797
169   0.06044   0.04254   0.99866   -0.03433   0.06044   0.04254   0.99866   -0.03433   97.33276
170   0.06045   0.04328   0.99872   -0.03449   0.06045   0.04328   0.99872   -0.03449   97.37854
171   0.06054   0.04254   0.99869   -0.03400   0.06054   0.04254   0.99869   -0.03400   97.23206
172   0.06050   0.04318   0.99875   -0.03369   0.06050   0.04318   0.99875   -0.03369   97.16797
173   0.06034   0.04273   0.99872   -0.03403   0.06034   0.04273   0.99872   -0.03403   97.38770
174   0.06035   0.04193   0.99863   -0.03458   0.06035   0.04193   0.99863   -0.03458   97.32971
175   0.06046   0.04257   0.99878   -0.03412   0.06046   0.04257   0.99878   -0.03412   97.27173
176   0.06043   0.04209   0.99872   -0.03406   0.06043   0.04209   0.99872   -0.03406   97.28699
177   0.06039   0.04227   0.99869   -0.03375   0.06039   0.04227   0.99869   -0.03375   97.42126
178   0.06047   0.04184   0.99866   -0.03354   0.06047   0.04184   0.99866   -0.03354   97.47009
179   0.06057   0.04224   0.99869   -0.03403   0.06057   0.04224   0.99869   -0.03403   97.26257
180   0.06052   0.04300   0.99866   -0.03540   0.06052   0.04300   0.99866   -0.03540   97.15576
181   0.06040   0.04291   0.99872   -0.03391   0.06040   0.04291   0.99872   -0.03391   97.39075
182   0.06047   0.04251   0.99875   -0.03403   0.06047   0.04251   0.99875   -0.03403   97.36328
183   0.06054   0.04315   0.99875   -0.03470   0.06054   0.04315   0.99875   -0.03470   97.18628
184   0.06045   0.04218   0.99872   -0.03415   0.06045   0.04218   0.99872   -0.03415   97.28699
185   0.06030   0.04218   0.99878   -0.03409   0.06030   0.04218   0.99878   -0.03409   97.41821
186   0.06043   0.04190   0.99872   -0.03427   0.06043   0.04190   0.99872   -0.03427   97.28699
187   0.06047   0.04218   0.99875   -0.03455   0.06047   0.04218   0.99875   -0.03455   97.12219
188   0.06044   0.04233   0.99872   -0.03406   0.06044   0.04233   0.99872   -0.03406   97.25647
189   0.06035   0.04196   0.99875   -0.03366   0.06035   0.04196   0.99875   -0.03366   97.49451
190   0.06048   0.04111   0.99869   -0.03452   0.06048   0.04111   0.99869   -0.03452   97.22900
191   0.06049   0.04233   0.99863   -0.03464   0.06049   0.04233   0.99863   -0.03464   97.21375
192   0.06047   0.04263   0.99863   -0.03482   0.06047   0.04263   0.99863   -0.03482   97.31750
193   0.06042   0.04257   0.99875   -0.03485   0.06042   0.04257   0.99875   -0.03485   97.43652
194   0.06048   0.04239   0.99869   -0.03320   0.06048   0.04239   0.99869   -0.03320   97.39380
195   0.06046   0.04151   0.99875   -0.03418   0.06046   0.04151   0.99875   -0.03418   97.31750
196   0.06034   0.04266   0.99869   -0.03446   0.06034   0.04266   0.99869   -0.03446   97.31140
197   0.06013   0.04282   0.99872   -0.03284   0.06013   0.04282   0.99872   -0.03284   97.40906
198   0.06040   0.04285   0.99872   -0.03333   0.06040   0.04285   0.99872   -0.03333   97.25342
199   0.06047   0.04163   0.99863   -0.03406   0.06047   0.04163   0.99863   -0.03406   97.27478
200   0.06042   0.04166   0.99875   -0.03409   0.06042   0.04166   0.99875   -0.03409   97.33276
201   0.06033   0.04248   0.99869   -0.03394   0.06033   0.04248   0.99869   -0.03394   97.37244
202   0.06042   0.04248   0.99872   -0.03415   0.06042   0.04248   0.99872   -0.03415   97.24121
203   0.06044   0.04279   0.99878   -0.03525   0.06044   0.04279   0.99878   -0.03525   97.25647
204   0.06046   0.04285   0.99863   -0.03534   0.06046   0.04285   0.99863   -0.03534   97.28699
205   0.06044   0.04221   0.99869   -0.03455   0.06044   0.04221   0.99869   -0.03455   97.28699
206   0.06047   0.04276   0.99866   -0.03311   0.06047   0.04276   0.99866   -0.03311   97.19849
207   0.06043   0.04157   0.99863   -0.03470   0.06043   0.04157   0.99863   -0.03470   97.27173
208   0.06037   0.04187   0.99866   -0.03418   0.06037   0.04187   0.99866   -0.03418   97.31445
209   0.06040   0.04147   0.99872   -0.03360   0.06040   0.04147   0.99872   -0.03360   97.23816
210   0.06041   0.04117   0.99881   -0.03320   0.06041   0.04117   0.99881   -0.03320   97.27173
211   0.06037   0.04111   0.99875   -0.03482   0.06037   0.04111   0.99875   -0.03482   97.31445
212   0.06040   0.04300   0.99863   -0.03491   0.06040   0.04300   0.99863   -0.03491   97.36023
213   0.06051   0.04239   0.99866   -0.03372   0.06051   0.04239   0.99866   -0.03372   97.30530
214   0.06053   0.04202   0.99872   -0.03424   0.06053   0.04202   0.99872   -0.03424   97.35107
215   0.06045   0.04257   0.99869   -0.03513   0.06045   0.04257   0.99869   -0.03513   97.33276
216   0.06048   0.04236   0.99863   -0.03455   0.06048   0.04236   0.99863   -0.03455   97.25952
217   0.06056   0.04270   0.99866   -0.03348   0.06056   0.04270   0.99866   -0.03348   97.27783
218   0.06052   0.04224   0.99869   -0.03452   0.06052   0.04224   0.99869   -0.03452   97.45789
219   0.06044   0.04230   0.99875   -0.03476   0.06044   0.04230   0.99875   -0.03476   97.37854
220   0.06039   0.04181   0.99869   -0.03479   0.06039   0.04181   0.99869   -0.03479   97.37549
221   0.06044   0.04376   0.99863   -0.03345   0.06044   0.04376   0.99863   -0.03345   97.27173
222   0.06044   0.04291   0.99869   -0.03482   0.06044   0.04291   0.99869   -0.03482   97.14966
223   0.06036   0.04236   0.99866   -0.03476   0.06036   0.04236   0.99866   -0.03476   97.45178
224   0.06045   0.04209   0.99875   -0.03458   0.06045   0.04209   0.99875   -0.03458   97.22595
225   0.06051   0.04257   0.99863   -0.03381   0.06051   0.04257   0.99863   -0.03381   97.24426
226   0.06046   0.04279   0.99872   -0.03513   0.06046   0.04279   0.99872   -0.03513   97.31750
227   0.06039   0.04282   0.99872   -0.03522   0.06039   0.04282   0.99872   -0.03522   97.45178
228   0.06048   0.04157   0.99863   -0.03418   0.06048   0.04157   0.99863   -0.03418   97.22900
229   0.06053   0.04282   0.99875   -0.03308   0.06053   0.04282   0.99875   -0.03308   97.21375
230   0.06046   0.04288   0.99863   -0.03452   0.06046   0.04288   0.99863   -0.03452   97.21069
231   0.06036   0.04218   0.99869   -0.03415   0.06036   0.04218   0.99869   -0.03415   97.40601
232   0.06039   0.04227   0.99875   -0.03436   0.06039   0.04227   0.99875   -0.03436   97.29919
233   0.06046   0.04163   0.99863   -0.03406   0.06046   0.04163   0.99863   -0.03406   97.30225
234   0.06037   0.04187   0.99866   -0.03397   0.06037   0.04187   0.99866   -0.03397   97.31445
235   0.06036   0.04260   0.99872   -0.03433   0.06036   0.04260   0.99872   -0.03433   97.39075
236   0.06047   0.04205   0.99875   -0.03385   0.06047   0.04205   0.99875   -0.03385   97.24121
237   0.06049   0.04205   0.99872   -0.03467   0.06049   0.04205   0.99872   -0.03467   97.25952
238   0.06041   0.04212   0.99866   -0.03507   0.06041   0.04212   0.99866   -0.03507   97.36023
239   0.06041   0.04270   0.99863   -0.03473   0.06041   0.04270   0.99863   -0.03473   97.43652
240   0.06051   0.04209   0.99866   -0.03372   0.06051   0.04209   0.99866   -0.03372   97.24426
241   0.06051   0.04196   0.99863   -0.03424   0.06051   0.04196   0.99863   -0.03424   97.27478
242   0.06041   0.04108   0.99875   -0.03565   0.06041   0.04108   0.99875   -0.03565   97.32971
243   0.06038   0.04254   0.99875   -0.03464   0.06038   0.04254   0.99875   -0.03464   97.34497
244   0.06040   0.04151   0.99872   -0.03421   0.06040   0.04151   0.99872   -0.03421   97.23816
245   0.06046   0.04178   0.99866   -0.03436   0.06046   0.04178   0.99866   -0.03436   97.27173
246   0.06038   0.04080   0.99872   -0.03464   0.06038   0.04080   0.99872   -0.03464   97.22290
247   0.06042   0.04270   0.99869   -0.03482   0.06042   0.04270   0.99869   -0.03482   97.33276
248   0.06047   0.04172   0.99872   -0.03446   0.06047   0.04172   0.99872   -0.03446   97.39380
249   0.06049   0.04300   0.99872   -0.03409   0.06049   0.04300   0.99872   -0.03409   97.18323
250   0.06040   0.04138   0.99878   -0.03491   0.06040   0.04138   0.99878   -0.03491   97.29919
251   0.06048   0.04227   0.99878   -0.03433   0.06048   0.04227   0.99878   -0.03433   97.32056
252   0.06049   0.04227   0.99869   -0.03394   0.06049   0.04227   0.99869   -0.03394   97.27478
253   0.06048   0.04181   0.99875   -0.03519   0.06048   0.04181   0.99875   -0.03519   97.25952
254   0.06039   0.04175   0.99869   -0.03397   0.06039   0.04175   0.99869   -0.03397   97.37549
255   0.06044   0.04227   0.99872   -0.03323   0.06044   0.04227   0.99872   -0.03323   97.25647
256   0.06041   0.04324   0.99866   -0.03409   0.06041   0.04324   0.99866   -0.03409   97.27173
257   0.06040   0.04215   0.99878   -0.03415   0.06040   0.04215   0.99878   -0.03415   97.37549
258   0.06040   0.04218   0.99866   -0.03446   0.06040   0.04218   0.99866   -0.03446   97.29919
259   0.06046   0.04181   0.99869   -0.03406   0.06046   0.04181   0.99869   -0.03406   97.31750
260   0.06047   0.04215   0.99875   -0.03485   0.06047   0.04215   0.99875   -0.03485   97.22900
261   0.06043   0.04263   0.99863   -0.03412   0.06043   0.04263   0.99863   -0.03412   97.40906
262   0.06047   0.04291   0.99875   -0.03482   0.06047   0.04291   0.99875   -0.03482   97.25952
263   0.06052   0.04285   0.99872   -0.03452   0.06052   0.04285   0.99872   -0.03452   97.29004
264   0.06048   0.04248   0.99863   -0.03494   0.06048   0.04248   0.99863   -0.03494   97.33276
265   0.06046   0.04199   0.99866   -0.03485   0.06046   0.04199   0.99866   -0.03485   97.36328
266   0.06044   0.04184   0.99866   -0.03336   0.06044   0.04184   0.99866   -0.03336   97.36328
267   0.06044   0.04169   0.99869   -0.03388   0.06044   0.04169   0.99869   -0.03388   97.27173
268   0.06036   0.04123   0.99863   -0.03522   0.06036   0.04123   0.99863   -0.03522   97.42126
269   0.06039   0.04212   0.99872   -0.03519   0.06039   0.04212   0.99872   -0.03519   97.29919
270   0.06047   0.04270   0.99872   -0.03482   0.06047   0.04270   0.99872   -0.03482   97.27173
271   0.06048   0.04221   0.99869   -0.03415   0.06048   0.04221   0.99869   -0.03415   97.21375
272   0.06040   0.04154   0.99863   -0.03479   0.06040   0.04154   0.99863   -0.03479   97.42126
273   0.06041   0.04306   0.99875   -0.03531   0.06041   0.04306   0.99875   -0.03531   97.31445
274   0.06053   0.04263   0.99869   -0.03412   0.06053   0.04263   0.99869   -0.03412   97.12524
275   0.06051   0.04224   0.99869   -0.03311   0.06051   0.04224   0.99869   -0.03311   97.24426
276   0.06042   0.04105   0.99875   -0.03360   0.06042   0.04105   0.99875   -0.03360   97.39075
277   0.06036   0.04178   0.99872   -0.03357   0.06036   0.04178   0.99872   -0.03357   97.36023
278   0.06035   0.04331   0.99866   -0.03369   0.06035   0.04331   0.99866   -0.03369   97.14661
279   0.06035   0.04279   0.99869   -0.03464   0.06035   0.04279   0.99869   -0.03464   97.20764
280   0.06042   0.04288   0.99872   -0.03513   0.06042   0.04288   0.99872   -0.03513   97.30225
281   0.06040   0.04236   0.99875   -0.03555   0.06040   0.04236   0.99875   -0.03555   97.43652
282   0.06051   0.04303   0.99863   -0.03421   0.06051   0.04303   0.99863   -0.03421   97.07947
283   0.06043   0.04239   0.99872   -0.03363   0.06043   0.04239   0.99872   -0.03363   97.19543
284   0.06042   0.04303   0.99869   -0.03482   0.06042   0.04303   0.99869   -0.03482   97.39075
285   0.06044   0.04169   0.99863   -0.03397   0.06044   0.04169   0.99863   -0.03397   97.36328
286   0.06054   0.04205   0.99866   -0.03403   0.06054   0.04205   0.99866   -0.03403   97.30530
287   0.06047   0.04386   0.99869   -0.03385   0.06047   0.04386   0.99869   -0.03385   97.30225
288   0.06039   0.04196   0.99863   -0.03427   0.06039   0.04196   0.99863   -0.03427   97.45178
289   0.06044   0.04135   0.99872   -0.03388   0.06044   0.04135   0.99872   -0.03388   97.37854
290   0.06047   0.04141   0.99884   -0.03287   0.06047   0.04141   0.99884   -0.03287   97.21375
291   0.06038   0.04257   0.99866   -0.03476   0.06038   0.04257   0.99866   -0.03476   97.26868
292   0.06036   0.04370   0.99850   -0.03519   0.06036   0.04370   0.99850   -0.03519   97.45178
293   0.06042   0.04270   0.99872   -0.03342   0.06042   0.04270   0.99872   -0.03342   97.27173
294   0.06049   0.04224   0.99863   -0.03455   0.06049   0.04224   0.99863   -0.03455   97.18323
295   0.06042   0.04273   0.99863   -0.03464   0.06042   0.04273   0.99863   -0.03464   97.30225
296   0.06042   0.04318   0.99863   -0.03339   0.06042   0.04318   0.99863   -0.03339   97.36023
297   0.06056   0.04248   0.99875   -0.03360   0.06056   0.04248   0.99875   -0.03360   97.23206
298   0.06052   0.04251   0.99872   -0.03272   0.06052   0.04251   0.99872   -0.03272   97.30530
299   0.06037   0.04297   0.99869   -0.03421   0.06037   0.04297   0.99869   -0.03421   97.31445
300   0.06039   0.04236   0.99872   -0.03394   0.06039   0.04236   0.99872   -0.03394   97.36023
301   0.06053   0.04202   0.99875   -0.03372   0.06053   0.04202   0.99875   -0.03372   97.39685
302   0.06052   0.04236   0.99878   -0.03433   0.06052   0.04236   0.99878   -0.03433   97.18323
303   0.06038   0.04300   0.99869   -0.03442   0.06038   0.04300   0.99869   -0.03442   97.29919
304   0.06034   0.04230   0.99863   -0.03415   0.06034   0.04230   0.99863   -0.03415   97.34192
305   0.06045   0.04254   0.99869   -0.03333   0.06045   0.04254   0.99869   -0.03333   97.25647
306   0.06050   0.04306   0.99872   -0.03400   0.06050   0.04306   0.99872   -0.03400   97.19849
307   0.06042   0.04242   0.99872   -0.03476   0.06042   0.04242   0.99872   -0.03476   97.31750
308   0.06038   0.04282   0.99872   -0.03363   0.06038   0.04282   0.99872   -0.03363   97.39075
309   0.06048   0.04291   0.99869   -0.03391   0.06048   0.04291   0.99869   -0.03391   97.25952
310   0.06047   0.04343   0.99878   -0.03497   0.06047   0.04343   0.99878   -0.03497   97.31750
311   0.06043   0.04343   0.99869   -0.03366   0.06043   0.04343   0.99869   -0.03366   97.39380
312   0.06049   0.04251   0.99869   -0.03504   0.06049   0.04251   0.99869   -0.03504   97.22900
313   0.06056   0.04233   0.99869   -0.03433   0.06056   0.04233   0.99869   -0.03433   97.30835
314   0.06042   0.04291   0.99866   -0.03400   0.06042   0.04291   0.99866   -0.03400   97.45178
315   0.06018   0.04254   0.99875   -0.03488   0.06018   0.04254   0.99875   -0.03488   97.35107
316   0.06033   0.04169   0.99872   -0.03360   0.06033   0.04169   0.99872   -0.03360   97.34192
317   0.06050   0.04233   0.99872   -0.03333   0.06050   0.04233   0.99872   -0.03333   97.19849
318   0.06042   0.04196   0.99878   -0.03497   0.06042   0.04196   0.99878   -0.03497   97.21069
319   0.06033   0.04285   0.99866   -0.03433   0.06033   0.04285   0.99866   -0.03433   97.26563
320   0.06044   0.04324   0.99875   -0.03400   0.06044   0.04324   0.99875   -0.03400   97.30225
321   0.06048   0.04221   0.99875   -0.03516   0.06048   0.04221   0.99875   -0.03516   97.24426
322   0.06041   0.04187   0.99872   -0.03510   0.06041   0.04187   0.99872   -0.03510   97.39075
323   0.06040   0.04279   0.99866   -0.03473   0.06040   0.04279   0.99866   -0.03473   97.37549
324   0.06049   0.04321   0.99869   -0.03296   0.06049   0.04321   0.99869   -0.03296   97.19849
325   0.06045   0.04309   0.99863   -0.03308   0.06045   0.04309   0.99863   -0.03308   97.28699
326   0.06034   0.04297   0.99866   -0.03473   0.06034   0.04297   0.99866   -0.03473   97.32666
327   0.06039   0.04263   0.99875   -0.03372   0.06039   0.04263   0.99875   -0.03372   97.28394
328   0.06044   0.04358   0.99872   -0.03397   0.06044   0.04358   0.99872   -0.03397   97.19543
329   0.06042   0.04239   0.99872   -0.03433   0.06042   0.04239   0.99872   -0.03433   97.31750
330   0.06040   0.04358   0.99860   -0.03510   0.06040   0.04358   0.99860   -0.03510   97.39075
331   0.06045   0.04202   0.99863   -0.03415   0.06045   0.04202   0.99863   -0.03415   97.25647
332   0.06047   0.04178   0.99866   -0.03345   0.06047   0.04178   0.99866   -0.03345   97.28699
333   0.06047   0.04242   0.99872   -0.03403   0.06047   0.04242   0.99872   -0.03403   97.28699
334   0.06041   0.04248   0.99866   -0.03446   0.06041   0.04248   0.99866   -0.03446   97.34497
335   0.06049   0.04257   0.99869   -0.03400   0.06049   0.04257   0.99869   -0.03400   97.43958
336   0.06053   0.04215   0.99875   -0.03372   0.06053   0.04215   0.99875   -0.03372   97.17102
337   0.06042   0.04300   0.99875   -0.03430   0.06042   0.04300   0.99875   -0.03430   97.30225
338   0.06032   0.04285   0.99863   -0.03433   0.06032   0.04285   0.99863   -0.03433   97.41821
339   0.06044   0.04367   0.99872   -0.03375   0.06044   0.04367   0.99872   -0.03375   97.27173
340   0.06047   0.04257   0.99875   -0.03412   0.06047   0.04257   0.99875   -0.03412   97.24426
341   0.06043   0.04276   0.99872   -0.03403   0.06043   0.04276   0.99872   -0.03403   97.39380
342   0.06036   0.04221   0.99866   -0.03436   0.06036   0.04221   0.99866   -0.03436   97.39075
343   0.06046   0.04324   0.99875   -0.03287   0.06046   0.04324   0.99875   -0.03287   97.30225
344   0.06052   0.04242   0.99863   -0.03391   0.06052   0.04242   0.99863   -0.03391   97.27478
345   0.06047   0.04331   0.99863   -0.03500   0.06047   0.04331   0.99863   -0.03500   97.28699
346   0.06041   0.04355   0.99869   -0.03388   0.06041   0.04355   0.99869   -0.03388   97.34497
347   0.06049   0.04312   0.99866   -0.03296   0.06049   0.04312   0.99866   -0.03296   97.25952
348   0.06052   0.04270   0.99866   -0.03330   0.06052   0.04270   0.99866   -0.03330   97.19849
349   0.06041   0.04337   0.99878   -0.03439   0.06041   0.04337   0.99878   -0.03439   97.27173
350   0.06033   0.04358   0.99860   -0.03531   0.06033   0.04358   0.99860   -0.03531   97.35718
351   0.06047   0.04370   0.99847   -0.03476   0.06047   0.04370   0.99847   -0.03476   97.27478
352   0.06047   0.04343   0.99872   -0.03388   0.06047   0.04343   0.99872   -0.03388   97.18323
353   0.06039   0.04257   0.99875   -0.03415   0.06039   0.04257   0.99875   -0.03415   97.36023
354   0.06040   0.04324   0.99869   -0.03391   0.06040   0.04324   0.99869   -0.03391   97.43652
355   0.06052   0.04315   0.99872   -0.03430   0.06052   0.04315   0.99872   -0.03430   97.19849
356   0.06050   0.04413   0.99860   -0.03433   0.06050   0.04413   0.99860   -0.03433   97.18323
357   0.06047   0.04294   0.99875   -0.03543   0.06047   0.04294   0.99875   -0.03543   97.27173
358   0.06047   0.04404   0.99863   -0.03476   0.06047   0.04404   0.99863   -0.03476   97.31750
359   0.06052   0.04315   0.99872   -0.03449   0.06052   0.04315   0.99872   -0.03449   97.19849
360   0.06047   0.04190   0.99875   -0.03375   0.06047   0.04190   0.99875   -0.03375   97.27478
361   0.06037   0.04245   0.99872   -0.03394   0.06037   0.04245   0.99872   -0.03394   97.31445
362   0.06039   0.04297   0.99869   -0.03421   0.06039   0.04297   0.99869   -0.03421   97.43652
363   0.06044   0.04282   0.99872   -0.03360   0.06044   0.04282   0.99872   -0.03360   97.30225
364   0.06046   0.04236   0.99869   -0.03394   0.06046   0.04236   0.99869   -0.03394   97.25647
365   0.06038   0.04260   0.99866   -0.03464   0.06038   0.04260   0.99866   -0.03464   97.45178
366   0.06047   0.04245   0.99866   -0.03363   0.06047   0.04245   0.99866   -0.03363   97.24426
367   0.06049   0.04236   0.99875   -0.03363   0.06049   0.04236   0.99875   -0.03363   97.25952
368   0.06047   0.04270   0.99872   -0.03482   0.06047   0.04270   0.99872   -0.03482   97.27173
369   0.06043   0.04254   0.99875   -0.03464   0.06043   0.04254   0.99875   -0.03464   97.42126
370   0.06051   0.04257   0.99869   -0.03442   0.06051   0.04257   0.99869   -0.03442   97.27478
371   0.06051   0.04279   0.99863   -0.03452   0.06051   0.04279   0.99863   -0.03452   97.19849
372   0.06042   0.04297   0.99875   -0.03461   0.06042   0.04297   0.99875   -0.03461   97.27173
373   0.06035   0.04260   0.99866   -0.03485   0.06035   0.04260   0.99866   -0.03485   97.35718
374   0.06047   0.04263   0.99872   -0.03381   0.06047   0.04263   0.99872   -0.03381   97.27173
375   0.06042   0.04236   0.99866   -0.03354   0.06042   0.04236   0.99866   -0.03354   97.30225
376   0.06040   0.04257   0.99866   -0.03473   0.06040   0.04257   0.99866   -0.03473   97.39075
377   0.06043   0.04285   0.99863   -0.03461   0.06043   0.04285   0.99863   -0.03461   97.36328
378   0.06054   0.04276   0.99872   -0.03400   0.06054   0.04276   0.99872   -0.03400   97.38159
379   0.06051   0.04346   0.99863   -0.03415   0.06051   0.04346   0.99863   -0.03415   97.35107
380   0.06046   0.04266   0.99875   -0.03464   0.06046   0.04266   0.99875   -0.03464   97.30225
381   0.06050   0.04376   0.99863   -0.03436   0.06050   0.04376   0.99863   -0.03436   97.13745
382   0.06054   0.04346   0.99872   -0.03375   0.06054   0.04346   0.99872   -0.03375   97.27478
383   0.06047   0.04401   0.99854   -0.03464   0.06047   0.04401   0.99854   -0.03464   97.24426
384   0.06041   0.04251   0.99872   -0.03455   0.06041   0.04251   0.99872   -0.03455   97.25647
385   0.06038   0.04306   0.99872   -0.03351   0.06038   0.04306   0.99872   -0.03351   97.26868
386   0.06046   0.04340   0.99866   -0.03449   0.06046   0.04340   0.99866   -0.03449   97.27173
387   0.06039   0.04236   0.99872   -0.03485   0.06039   0.04236   0.99872   -0.03485   97.32971
388   0.06041   0.04321   0.99866   -0.03510   0.06041   0.04321   0.99866   -0.03510   97.34497
389   0.06047   0.04184   0.99863   -0.03366   0.06047   0.04184   0.99863   -0.03366   97.25952
390   0.06050   0.04266   0.99863   -0.03381   0.06050   0.04266   0.99863   -0.03381   97.18323
391   0.06042   0.04358   0.99854   -0.03519   0.06042   0.04358   0.99854   -0.03519   97.45178
392   0.06042   0.04379   0.99869   -0.03446   0.06042   0.04379   0.99869   -0.03446   97.46704
393   0.06049   0.04221   0.99869   -0.03415   0.06049   0.04221   0.99869   -0.03415   97.35107
394   0.06051   0.04254   0.99863   -0.03391   0.06051   0.04254   0.99863   -0.03391   97.21375
395   0.06042   0.04215   0.99866   -0.03427   0.06042   0.04215   0.99866   -0.03427   97.27173
396   0.06031   0.04291   0.99872   -0.03455   0.06031   0.04291   0.99872   -0.03455   97.38770
397   0.06024   0.04331   0.99863   -0.03403   0.06024   0.04331   0.99863   -0.03403   97.24731
398   0.06040   0.04230   0.99863   -0.03394   0.06040   0.04230   0.99863   -0.03394   97.23816
399   0.06045   0.04279   0.99872   -0.03534   0.06045   0.04279   0.99872   -0.03534   97.33276
400   0.06042   0.04257   0.99875   -0.03394   0.06042   0.04257   0.99875   -0.03394   97.31750
401   0.06042   0.04364   0.99866   -0.03366   0.06042   0.04364   0.99866   -0.03366   97.24121
402   0.06044   0.04294   0.99863   -0.03369   0.06044   0.04294   0.99863   -0.03369   97.30225
403   0.06041   0.04303   0.99866   -0.03461   0.06041   0.04303   0.99866   -0.03461   97.39075
404   0.06047   0.04227   0.99863   -0.03473   0.06047   0.04227   0.99863   -0.03473   97.34802
405   0.06051   0.04273   0.99863   -0.03351   0.06051   0.04273   0.99863   -0.03351   97.35107
406   0.06039   0.04227   0.99863   -0.03403   0.06039   0.04227   0.99863   -0.03403   97.51282
407   0.06039   0.04358   0.99872   -0.03449   0.06039   0.04358   0.99872   -0.03449   97.37549
408   0.06040   0.04355   0.99866   -0.03366   0.06040   0.04355   0.99866   -0.03366   97.34497
409   0.06048   0.04318   0.99872   -0.03470   0.06048   0.04318   0.99872   -0.03470   97.25952
410   0.06043   0.04135   0.99863   -0.03470   0.06043   0.04135   0.99863   -0.03470   97.28699
411   0.06040   0.04242   0.99866   -0.03507   0.06040   0.04242   0.99866   -0.03507   97.28394
412   0.06047   0.04257   0.99875   -0.03320   0.06047   0.04257   0.99875   -0.03320   97.27478
413   0.06059   0.04279   0.99863   -0.03500   0.06059   0.04279   0.99863   -0.03500   97.18933
414   0.06051   0.04315   0.99869   -0.03479   0.06051   0.04315   0.99869   -0.03479   97.32056
415   0.06042   0.04257   0.99872   -0.03442   0.06042   0.04257   0.99872   -0.03442   97.42126
416   0.06051   0.04239   0.99869   -0.03320   0.06051   0.04239   0.99869   -0.03320   97.35107
417   0.06059   0.04266   0.99863   -0.03479   0.06059   0.04266   0.99863   -0.03479   97.26257
418   0.06049   0.04224   0.99866   -0.03433   0.06049   0.04224   0.99866   -0.03433   97.33582
419   0.06043   0.04260   0.99866   -0.03421   0.06043   0.04260   0.99866   -0.03421   97.37854
420   0.06044   0.04273   0.99872   -0.03403   0.06044   0.04273   0.99872   -0.03403   97.24121
421   0.06051   0.04245   0.99872   -0.03333   0.06051   0.04245   0.99872   -0.03333   97.24426
422   0.06045   0.04251   0.99869   -0.03433   0.06045   0.04251   0.99869   -0.03433   97.18018
423   0.06041   0.04248   0.99866   -0.03403   0.06041   0.04248   0.99866   -0.03403   97.48230
424   0.06047   0.04413   0.99854   -0.03442   0.06047   0.04413   0.99854   -0.03442   97.30225
425   0.06049   0.04297   0.99872   -0.03491   0.06049   0.04297   0.99872   -0.03491   97.25952
426   0.06046   0.04181   0.99875   -0.03537   0.06046   0.04181   0.99875   -0.03537   97.30225
427   0.06050   0.04285   0.99878   -0.03421   0.06050   0.04285   0.99878   -0.03421   97.22900
428   0.06050   0.04386   0.99857   -0.03494   0.06050   0.04386   0.99857   -0.03494   97.25952
429   0.06051   0.04358   0.99866   -0.03458   0.06051   0.04358   0.99866   -0.03458   97.29004
430   0.06045   0.04276   0.99872   -0.03473   0.06045   0.04276   0.99872   -0.03473   97.33276
431   0.06045   0.04270   0.99875   -0.03452   0.06045   0.04270   0.99875   -0.03452   97.19543
432   0.06039   0.04260   0.99866   -0.03394   0.06039   0.04260   0.99866   -0.03394   97.32971
433   0.06043   0.04370   0.99878   -0.03436   0.06043   0.04370   0.99878   -0.03436   97.30225
434   0.06039   0.04260   0.99872   -0.03381   0.06039   0.04260   0.99872   -0.03381   97.39075
435   0.06048   0.04306   0.99866   -0.03430   0.06048   0.04306   0.99866   -0.03430   97.32056
436   0.06046   0.04312   0.99863   -0.03348   0.06046   0.04312   0.99863   -0.03348   97.27173
437   0.06047   0.04349   0.99875   -0.03397   0.06047   0.04349   0.99875   -0.03397   97.24121
438   0.06045   0.04273   0.99875   -0.03330   0.06045   0.04273   0.99875   -0.03330   97.42432
439   0.06052   0.04328   0.99872   -0.03470   0.06052   0.04328   0.99872   -0.03470   97.27478
440   0.06048   0.04389   0.99847   -0.03507   0.06048   0.04389   0.99847   -0.03507   97.21375
441   0.06045   0.04266   0.99866   -0.03504   0.06045   0.04266   0.99866   -0.03504   97.34802
442   0.06047   0.04257   0.99866   -0.03452   0.06047   0.04257   0.99866   -0.03452   97.27478
443   0.06046   0.04300   0.99875   -0.03360   0.06046   0.04300   0.99875   -0.03360   97.28699
444   0.06042   0.04236   0.99866   -0.03494   0.06042   0.04236   0.99866   -0.03494   97.22595
445   0.06039   0.04288   0.99863   -0.03360   0.06039   0.04288   0.99863   -0.03360   97.34497
446   0.06046   0.04331   0.99875   -0.03369   0.06046   0.04331   0.99875   -0.03369   97.30225
447   0.06050   0.04331   0.99866   -0.03397   0.06050   0.04331   0.99866   -0.03397   97.16797
448   0.06043   0.04270   0.99869   -0.03351   0.06043   0.04270   0.99869   -0.03351   97.34802
449   0.06046   0.04294   0.99863   -0.03442   0.06046   0.04294   0.99863   -0.03442   97.24121
450   0.06049   0.04312   0.99875   -0.03339   0.06049   0.04312   0.99875   -0.03339   97.29004
451   0.06050   0.04193   0.99869   -0.03336   0.06050   0.04193   0.99869   -0.03336   97.19849
452   0.06045   0.04379   0.99866   -0.03385   0.06045   0.04379   0.99866   -0.03385   97.40906
453   0.06043   0.04279   0.99866   -0.03421   0.06043   0.04279   0.99866   -0.03421   97.37854
454   0.06049   0.04288   0.99866   -0.03400   0.06049   0.04288   0.99866   -0.03400   97.19849
455   0.06038   0.04169   0.99875   -0.03427   0.06038   0.04169   0.99875   -0.03427   97.37549
456   0.06036   0.04242   0.99869   -0.03333   0.06036   0.04242   0.99869   -0.03333   97.46399
457   0.06036   0.04141   0.99875   -0.03439   0.06036   0.04141   0.99875   -0.03439   97.39075
458   0.06050   0.04254   0.99872   -0.03424   0.06050   0.04254   0.99872   -0.03424   97.15271
459   0.06046   0.04282   0.99863   -0.03400   0.06046   0.04282   0.99863   -0.03400   97.31750
460   0.06044   0.04355   0.99850   -0.03507   0.06044   0.04355   0.99850   -0.03507   97.37854
461   0.06044   0.04276   0.99872   -0.03442   0.06044   0.04276   0.99872   -0.03442   97.24121
462   0.06054   0.04212   0.99863   -0.03394   0.06054   0.04212   0.99863   -0.03394   97.18628
463   0.06048   0.04172   0.99866   -0.03458   0.06048   0.04172   0.99866   -0.03458   97.30530
464   0.06043   0.04202   0.99878   -0.03467   0.06043   0.04202   0.99878   -0.03467   97.37854
465   0.06046   0.04163   0.99875   -0.03397   0.06046   0.04163   0.99875   -0.03397   97.37854
466   0.06045   0.04248   0.99869   -0.03394   0.06045   0.04248   0.99869   -0.03394   97.33276
467   0.06037   0.04263   0.99872   -0.03424   0.06037   0.04263   0.99872   -0.03424   97.26868
468   0.06038   0.04273   0.99869   -0.03525   0.06038   0.04273   0.99869   -0.03525   97.39075
469   0.06043   0.04288   0.99866   -0.03400   0.06043   0.04288   0.99866   -0.03400   97.30225
470   0.06049   0.04312   0.99872   -0.03479   0.06049   0.04312   0.99872   -0.03479   97.21375
471   0.06042   0.04166   0.99866   -0.03540   0.06042   0.04166   0.99866   -0.03540   97.33276
472   0.06039   0.04205   0.99866   -0.03336   0.06039   0.04205   0.99866   -0.03336   97.42126
473   0.06046   0.04218   0.99872   -0.03323   0.06046   0.04218   0.99872   -0.03323   97.30225
474   0.06049   0.04315   0.99869   -0.03430   0.06049   0.04315   0.99869   -0.03430   97.22900
475   0.06044   0.04288   0.99875   -0.03391   0.06044   0.04288   0.99875   -0.03391   97.34802
476   0.06043   0.04169   0.99863   -0.03305   0.06043   0.04169   0.99863   -0.03305   97.40906
477   0.06043   0.04413   0.99863   -0.03314   0.06043   0.04413   0.99863   -0.03314   97.22595
478   0.06028   0.04306   0.99860   -0.03412   0.06028   0.04306   0.99860   -0.03412   97.31140
479   0.06033   0.04273   0.99866   -0.03433   0.06033   0.04273   0.99866   -0.03433   97.34192
480   0.06046   0.04181   0.99869   -0.03427   0.06046   0.04181   0.99869   -0.03427   97.31750
481   0.06049   0.04239   0.99866   -0.03442   0.06049   0.04239   0.99866   -0.03442   97.29004
482   0.06043   0.04236   0.99872   -0.03464   0.06043   0.04236   0.99872   -0.03464   97.27173
483   0.06040   0.04154   0.99863   -0.03449   0.06040   0.04154   0.99863   -0.03449   97.31445
484   0.06047   0.04166   0.99872   -0.03388   0.06047   0.04166   0.99872   -0.03388   97.37854
485   0.06052   0.04230   0.99875   -0.03473   0.06052   0.04230   0.99875   -0.03473   97.25952
486   0.06051   0.04236   0.99872   -0.03372   0.06051   0.04236   0.99872   -0.03372   97.32056
487   0.06046   0.04187   0.99863   -0.03446   0.06046   0.04187   0.99863   -0.03446   97.28699
488   0.06049   0.04212   0.99872   -0.03403   0.06049   0.04212   0.99872   -0.03403   97.33582
489   0.06049   0.04233   0.99875   -0.03442   0.06049   0.04233   0.99875   -0.03442   97.33582
490   0.06039   0.04221   0.99866   -0.03345   0.06039   0.04221   0.99866   -0.03345   97.37549
491   0.06037   0.04312   0.99869   -0.03504   0.06037   0.04312   0.99869   -0.03504   97.23816
492   0.06043   0.04227   0.99863   -0.03406   0.06043   0.04227   0.99863   -0.03406   97.31750
493   0.06045   0.04343   0.99866   -0.03488   0.06045   0.04343   0.99866   -0.03488   97.28699
494   0.06046   0.04218   0.99866   -0.03558   0.06046   0.04218   0.99866   -0.03558   97.18018
495   0.06044   0.04266   0.99875   -0.03372   0.06044   0.04266   0.99875   -0.03372   97.36328
496   0.06054   0.04306   0.99863   -0.03369   0.06054   0.04306   0.99863   -0.03369   97.21680
497   0.06056   0.04349   0.99872   -0.03446   0.06056   0.04349   0.99872   -0.03446   97.35107
498   0.06045   0.04218   0.99875   -0.03455   0.06045   0.04218   0.99875   -0.03455   97.30225
499   0.06043   0.04270   0.99878   -0.03381   0.06043   0.04270   0.99878   -0.03381   97.27173
500   0.06052   0.04205   0.99863   -0.03314   0.06052   0.04205   0.99863   -0.03314   97.21375
501   0.06051   0.04321   0.99872   -0.03388   0.06051   0.04321   0.99872   -0.03388   97.29004
502   0.06041   0.04257   0.99878   -0.03525   0.06041   0.04257   0.99878   -0.03525   97.45178
503   0.06045   0.04285   0.99878   -0.03351   0.06045   0.04285   0.99878   -0.03351   97.34802
504   0.06047   0.04318   0.99875   -0.03513   0.06047   0.04318   0.99875   -0.03513   97.13745
505   0.06042   0.04199   0.99863   -0.03415   0.06042   0.04199   0.99863   -0.03415   97.30225
506   0.06041   0.04266   0.99872   -0.03464   0.06041   0.04266   0.99872   -0.03464   97.36023
507   0.06050   0.04190   0.99866   -0.03366   0.06050   0.04190   0.99866   -0.03366   97.15271
508   0.06047   0.04321   0.99866   -0.03418   0.06047   0.04321   0.99866   -0.03418   97.30225
509   0.06046   0.04270   0.99872   -0.03504   0.06046   0.04270   0.99872   -0.03504   97.28699
510   0.06043   0.04337   0.99872   -0.03470   0.06043   0.04337   0.99872   -0.03470   97.33276
511   0.06051   0.04291   0.99869   -0.03299   0.06051   0.04291   0.99869   -0.03299   97.39685
512   0.06055   0.04309   0.99866   -0.03449   0.06055   0.04309   0.99866   -0.03449   97.21680
513   0.06049   0.04282   0.99875   -0.03452   0.06049   0.04282   0.99875   -0.03452   97.35107
514   0.06038   0.04254   0.99872   -0.03424   0.06038   0.04254   0.99872   -0.03424   97.32971
515   0.06032   0.04343   0.99875   -0.03360   0.06032   0.04343   0.99875   -0.03360   97.32666
516   0.06040   0.04266   0.99869   -0.03442   0.06040   0.04266   0.99869   -0.03442   97.21069
517   0.06044   0.04273   0.99866   -0.03464   0.06044   0.04273   0.99866   -0.03464   97.28699
518   0.06035   0.04276   0.99875   -0.03342   0.06035   0.04276   0.99875   -0.03342   97.46399
519   0.06042   0.04212   0.99869   -0.03284   0.06042   0.04212   0.99869   -0.03284   97.21069
520   0.06048   0.04321   0.99872   -0.03369   0.06048   0.04321   0.99872   -0.03369   97.18323
521   0.06047   0.04355   0.99850   -0.03488   0.06047   0.04355   0.99850   -0.03488   97.33276
522   0.06042   0.04245   0.99872   -0.03446   0.06042   0.04245   0.99872   -0.03446   97.34802
523   0.06051   0.04257   0.99863   -0.03452   0.06051   0.04257   0.99863   -0.03452   97.21375
524   0.06046   0.04282   0.99863   -0.03442   0.06046   0.04282   0.99863   -0.03442   97.31750
525   0.06035   0.04242   0.99866   -0.03507   0.06035   0.04242   0.99866   -0.03507   97.36023
526   0.06035   0.04236   0.99872   -0.03397   0.06035   0.04236   0.99872   -0.03397   97.26868
527   0.06044   0.04309   0.99866   -0.03491   0.06044   0.04309   0.99866   -0.03491   97.24121
528   0.06046   0.04282   0.99869   -0.03552   0.06046   0.04282   0.99869   -0.03552   97.16492
529   0.06040   0.04263   0.99872   -0.03473   0.06040   0.04263   0.99872   -0.03473   97.32971
530   0.06043   0.04285   0.99875   -0.03421   0.06043   0.04285   0.99875   -0.03421   97.33276
531   0.06048   0.04309   0.99875   -0.03409   0.06048   0.04309   0.99875   -0.03409   97.27478
532   0.06046   0.04337   0.99869   -0.03500   0.06046   0.04337   0.99869   -0.03500   97.24121
533   0.06041   0.04254   0.99875   -0.03464   0.06041   0.04254   0.99875   -0.03464   97.29919
534   0.06046   0.04193   0.99863   -0.03455   0.06046   0.04193   0.99863   -0.03455   97.31750
535   0.06047   0.04328   0.99875   -0.03418   0.06047   0.04328   0.99875   -0.03418   97.25647
536   0.06044   0.04346   0.99872   -0.03449   0.06044   0.04346   0.99872   -0.03449   97.24121
537   0.06039   0.04282   0.99866   -0.03482   0.06039   0.04282   0.99866   -0.03482   97.28394
538   0.06041   0.04294   0.99869   -0.03433   0.06041   0.04294   0.99869   -0.03433   97.22595
539   0.06043   0.04205   0.99863   -0.03427   0.06043   0.04205   0.99863   -0.03427   97.18018
540   0.06041   0.04254   0.99863   -0.03485   0.06041   0.04254   0.99863   -0.03485   97.32971
541   0.06043   0.04355   0.99866   -0.03366   0.06043   0.04355   0.99866   -0.03366   97.30225
542   0.06047   0.04422   0.99860   -0.03433   0.06047   0.04422   0.99860   -0.03433   97.30225
543   0.06042   0.04169   0.99872   -0.03409   0.06042   0.04169   0.99872   -0.03409   97.31750
544   0.06042   0.04279   0.99869   -0.03372   0.06042   0.04279   0.99869   -0.03372   97.28699
545   0.06046   0.04181   0.99866   -0.03388   0.06046   0.04181   0.99866   -0.03388   97.30225
546   0.06052   0.04334   0.99866   -0.03348   0.06052   0.04334   0.99866   -0.03348   97.16797
547   0.06047   0.04270   0.99872   -0.03482   0.06047   0.04270   0.99872   -0.03482   97.27173
548   0.06042   0.04343   0.99844   -0.03519   0.06042   0.04343   0.99844   -0.03519   97.28699
549   0.06037   0.04266   0.99875   -0.03342   0.06037   0.04266   0.99875   -0.03342   97.34497
550   0.06042   0.04248   0.99869   -0.03250   0.06042   0.04248   0.99869   -0.03250   97.30225
551   0.06037   0.04279   0.99872   -0.03433   0.06037   0.04279   0.99872   -0.03433   97.37549
552   0.06037   0.04321   0.99875   -0.03522   0.06037   0.04321   0.99875   -0.03522   97.32971
553   0.06046   0.04318   0.99872   -0.03418   0.06046   0.04318   0.99872   -0.03418   97.33276
554   0.06049   0.04288   0.99869   -0.03439   0.06049   0.04288   0.99869   -0.03439   97.21375
555   0.06039   0.04346   0.99869   -0.03479   0.06039   0.04346   0.99869   -0.03479   97.40601
556   0.06045   0.04315   0.99869   -0.03430   0.06045   0.04315   0.99869   -0.03430   97.30225
557   0.06051   0.04260   0.99869   -0.03461   0.06051   0.04260   0.99869   -0.03461   97.27478
558   0.06049   0.04282   0.99863   -0.03491   0.06049   0.04282   0.99863   -0.03491   97.22900
559   0.06042   0.04202   0.99872   -0.03497   0.06042   0.04202   0.99872   -0.03497   97.33276
560   0.06044   0.04263   0.99863   -0.03534   0.06044   0.04263   0.99863   -0.03534   97.31750
561   0.06044   0.04245   0.99866   -0.03333   0.06044   0.04245   0.99866   -0.03333   97.19543
562   0.06044   0.04343   0.99872   -0.03461   0.06044   0.04343   0.99872   -0.03461   97.21069
563   0.06035   0.04291   0.99866   -0.03421   0.06035   0.04291   0.99866   -0.03421   97.41821
564   0.06042   0.04251   0.99875   -0.03424   0.06042   0.04251   0.99875   -0.03424   97.28699
565   0.06048   0.04276   0.99875   -0.03351   0.06048   0.04276   0.99875   -0.03351   97.21375
566   0.06047   0.04340   0.99866   -0.03427   0.06047   0.04340   0.99866   -0.03427   97.24426
567   0.06039   0.04254   0.99866   -0.03455   0.06039   0.04254   0.99866   -0.03455   97.40601
568   0.06047   0.04303   0.99872   -0.03522   0.06047   0.04303   0.99872   -0.03522   97.31750
569   0.06051   0.04251   0.99875   -0.03381   0.06051   0.04251   0.99875   -0.03381   97.29004
570   0.06049   0.04270   0.99857   -0.03592   0.06049   0.04270   0.99857   -0.03592   97.21375
571   0.06038   0.04178   0.99866   -0.03528   0.06038   0.04178   0.99866   -0.03528   97.34497
572   0.06041   0.04227   0.99869   -0.03415   0.06041   0.04227   0.99869   -0.03415   97.25647
573   0.06042   0.04331   0.99866   -0.03378   0.06042   0.04331   0.99866   -0.03378   97.28699
574   0.06041   0.04254   0.99866   -0.03455   0.06041   0.04254   0.99866   -0.03455   97.37549
575   0.06035   0.04248   0.99872   -0.03436   0.06035   0.04248   0.99872   -0.03436   97.34497
576   0.06042   0.04257   0.99869   -0.03394   0.06042   0.04257   0.99869   -0.03394   97.30225
577   0.06048   0.04294   0.99869   -0.03430   0.06048   0.04294   0.99869   -0.03430   97.25952
578   0.06051   0.04270   0.99866   -0.03473   0.06051   0.04270   0.99866   -0.03473   97.29004
579   0.06044   0.04285   0.99875   -0.03491   0.06044   0.04285   0.99875   -0.03491   97.42432
580   0.06051   0.04276   0.99872   -0.03543   0.06051   0.04276   0.99872   -0.03543   97.19849
581   0.06047   0.04245   0.99869   -0.03424   0.06047   0.04245   0.99869   -0.03424   97.27173
582   0.06046   0.04276   0.99866   -0.03452   0.06046   0.04276   0.99866   -0.03452   97.30225
583   0.06036   0.04202   0.99866   -0.03436   0.06036   0.04202   0.99866   -0.03436   97.54028
584   0.06042   0.04331   0.99875   -0.03391   0.06042   0.04331   0.99875   -0.03391   97.21069
585   0.06040   0.04321   0.99863   -0.03400   0.06040   0.04321   0.99863   -0.03400   97.23816
586   0.06035   0.04202   0.99869   -0.03449   0.06035   0.04202   0.99869   -0.03449   97.31445
587   0.06037   0.04276   0.99869   -0.03473   0.06037   0.04276   0.99869   -0.03473   97.43652
588   0.06046   0.04242   0.99863   -0.03372   0.06046   0.04242   0.99863   -0.03372   97.22595
589   0.06047   0.04266   0.99866   -0.03424   0.06047   0.04266   0.99866   -0.03424   97.10693
590   0.06038   0.04358   0.99875   -0.03439   0.06038   0.04358   0.99875   -0.03439   97.29919
591   0.06043   0.04324   0.99875   -0.03449   0.06043   0.04324   0.99875   -0.03449   97.42126
592   0.06052   0.04352   0.99875   -0.03388   0.06052   0.04352   0.99875   -0.03388   97.19849
593   0.06047   0.04294   0.99872   -0.03452   0.06047   0.04294   0.99872   -0.03452   97.28699
594   0.06043   0.04248   0.99875   -0.03485   0.06043   0.04248   0.99875   -0.03485   97.34802
595   0.06047   0.04346   0.99872   -0.03427   0.06047   0.04346   0.99872   -0.03427   97.18323
596   0.06034   0.04166   0.99872   -0.03482   0.06034   0.04166   0.99872   -0.03482   97.25037
597   0.06019   0.04212   0.99875   -0.03369   0.06019   0.04212   0.99875   -0.03369   97.29004
598   0.06035   0.04346   0.99875   -0.03421   0.06035   0.04346   0.99875   -0.03421   97.28394
599   0.06048   0.04291   0.99875   -0.03409   0.06048   0.04291   0.99875   -0.03409   97.42432
600   0.06043   0.04346   0.99875   -0.03400   0.06043   0.04346   0.99875   -0.03400   97.30225
601   0.06032   0.04154   0.99866   -0.03400   0.06032   0.04154   0.99866   -0.03400   97.34192
602   0.06037   0.04303   0.99866   -0.03342   0.06037   0.04303   0.99866   -0.03342   97.37549
603   0.06048   0.04196   0.99869   -0.03394   0.06048   0.04196   0.99869   -0.03394   97.37854
604   0.06046   0.04242   0.99875   -0.03494   0.06046   0.04242   0.99875   -0.03494   97.27173
605   0.06041   0.04270   0.99869   -0.03482   0.06041   0.04270   0.99869   -0.03482   97.34497
606   0.06040   0.04251   0.99866   -0.03394   0.06040   0.04251   0.99866   -0.03394   97.39075
607   0.06045   0.04266   0.99869   -0.03372   0.06045   0.04266   0.99869   -0.03372   97.18018
608   0.06034   0.04297   0.99869   -0.03403   0.06034   0.04297   0.99869   -0.03403   97.37244
609   0.06036   0.04218   0.99875   -0.03568   0.06036   0.04218   0.99875   -0.03568   97.23816
610   0.06040   0.04236   0.99878   -0.03385   0.06040   0.04236   0.99878   -0.03385   97.25342
611   0.06046   0.04202   0.99863   -0.03436   0.06046   0.04202   0.99863   -0.03436   97.24121
612   0.06043   0.04288   0.99872   -0.03534   0.06043   0.04288   0.99872   -0.03534   97.28699
613   0.06042   0.04315   0.99875   -0.03400   0.06042   0.04315   0.99875   -0.03400   97.40601
614   0.06053   0.04190   0.99869   -0.03436   0.06053   0.04190   0.99869   -0.03436   97.22900
615   0.06052   0.04163   0.99869   -0.03357   0.06052   0.04163   0.99869   -0.03357   97.25952
616   0.06044   0.04172   0.99866   -0.03528   0.06044   0.04172   0.99866   -0.03528   97.33276
617   0.06048   0.04205   0.99866   -0.03494   0.06048   0.04205   0.99866   -0.03494   97.36328
618   0.06055   0.04218   0.99869   -0.03372   0.06055   0.04218   0.99869   -0.03372   97.26257
619   0.06047   0.04181   0.99866   -0.03366   0.06047   0.04181   0.99866   -0.03366   97.28699
620   0.06035   0.04266   0.99872   -0.03464   0.06035   0.04266   0.99872   -0.03464   97.31445
621   0.06037   0.04215   0.99875   -0.03397   0.06037   0.04215   0.99875   -0.03397   97.40601
622   0.06045   0.04114   0.99887   -0.03320   0.06045   0.04114   0.99887   -0.03320   97.39380
623   0.06044   0.04218   0.99875   -0.03385   0.06044   0.04218   0.99875   -0.03385   97.34802
624   0.06039   0.04233   0.99866   -0.03507   0.06039   0.04233   0.99866   -0.03507   97.37549
625   0.06039   0.04221   0.99872   -0.03424   0.06039   0.04221   0.99872   -0.03424   97.40601
626   0.06052   0.04227   0.99872   -0.03412   0.06052   0.04227   0.99872   -0.03412   97.24426
627   0.06049   0.04230   0.99863   -0.03424   0.06049   0.04230   0.99863   -0.03424   97.21375
628   0.06037   0.04236   0.99863   -0.03385   0.06037   0.04236   0.99863   -0.03385   97.46704
629   0.06044   0.04248   0.99872   -0.03394   0.06044   0.04248   0.99872   -0.03394   97.36328
630   0.06048   0.04196   0.99878   -0.03336   0.06048   0.04196   0.99878   -0.03336   97.18323
631   0.06040   0.04166   0.99863   -0.03378   0.06040   0.04166   0.99863   -0.03378   97.26868
632   0.06034   0.04215   0.99863   -0.03427   0.06034   0.04215   0.99863   -0.03427   97.38770
633   0.06037   0.04120   0.99869   -0.03400   0.06037   0.04120   0.99869   -0.03400   97.36023
634   0.06046   0.04160   0.99875   -0.03418   0.06046   0.04160   0.99875   -0.03418   97.24121
635   0.06042   0.04218   0.99869   -0.03415   0.06042   0.04218   0.99869   -0.03415   97.31750
636   0.06037   0.04190   0.99863   -0.03436   0.06037   0.04190   0.99863   -0.03436   97.29919
637   0.06044   0.04215   0.99869   -0.03375   0.06044   0.04215   0.99869   -0.03375   97.28699
638   0.06049   0.04157   0.99869   -0.03366   0.06049   0.04157   0.99869   -0.03366   97.27478
639   0.06050   0.04230   0.99869   -0.03504   0.06050   0.04230   0.99869   -0.03504   97.22900
640   0.06042   0.04288   0.99863   -0.03522   0.06042   0.04288   0.99863   -0.03522   97.37549
641   0.06047   0.04242   0.99875   -0.03473   0.06047   0.04242   0.99875   -0.03473   97.24426
642   0.06047   0.04285   0.99875   -0.03400   0.06047   0.04285   0.99875   -0.03400   97.27173
643   0.06037   0.04163   0.99866   -0.03378   0.06037   0.04163   0.99866   -0.03378   97.32971
644   0.06034   0.04245   0.99875   -0.03345   0.06034   0.04245   0.99875   -0.03345   97.41821
645   0.06044   0.04364   0.99863   -0.03397   0.06044   0.04364   0.99863   -0.03397   97.16492
646   0.06045   0.04291   0.99875   -0.03452   0.06045   0.04291   0.99875   -0.03452   97.19543
647   0.06041   0.04144   0.99872   -0.03439   0.06041   0.04144   0.99872   -0.03439   97.29919
648   0.06041   0.04334   0.99863   -0.03400   0.06041   0.04334   0.99863   -0.03400   97.43652
649   0.06047   0.04257   0.99872   -0.03394   0.06047   0.04257   0.99872   -0.03394   97.22900
650   0.06047   0.04266   0.99863   -0.03504   0.06047   0.04266   0.99863   -0.03504   97.31750
651   0.06043   0.04315   0.99850   -0.03549   0.06043   0.04315   0.99850   -0.03549   97.40906
652   0.06046   0.04193   0.99863   -0.03455   0.06046   0.04193   0.99863   -0.03455   97.31750
653   0.06045   0.04154   0.99869   -0.03378   0.06045   0.04154   0.99869   -0.03378   97.30225
654   0.06041   0.04157   0.99872   -0.03339   0.06041   0.04157   0.99872   -0.03339   97.29919
655   0.06035   0.04367   0.99860   -0.03491   0.06035   0.04367   0.99860   -0.03491   97.23816
656   0.06043   0.04196   0.99875   -0.03406   0.06043   0.04196   0.99875   -0.03406   97.22595
657   0.06040   0.04181   0.99869   -0.03336   0.06040   0.04181   0.99869   -0.03336   97.28394
658   0.06041   0.04209   0.99863   -0.03375   0.06041   0.04209   0.99863   -0.03375   97.24121
659   0.06039   0.04154   0.99866   -0.03400   0.06039   0.04154   0.99866   -0.03400   97.37549
660   0.06047   0.04184   0.99863   -0.03385   0.06047   0.04184   0.99863   -0.03385   97.25952
661   0.06047   0.04172   0.99866   -0.03357   0.06047   0.04172   0.99866   -0.03357   97.24426
662   0.06045   0.04218   0.99866   -0.03464   0.06045   0.04218   0.99866   -0.03464   97.37854
663   0.06045   0.04212   0.99863   -0.03415   0.06045   0.04212   0.99863   -0.03415   97.33276
664   0.06053   0.04288   0.99872   -0.03348   0.06053   0.04288   0.99872   -0.03348   97.20154
665   0.06047   0.04212   0.99878   -0.03446   0.06047   0.04212   0.99878   -0.03446   97.24121
666   0.06040   0.04285   0.99869   -0.03473   0.06040   0.04285   0.99869   -0.03473   97.31445
667   0.06035   0.04239   0.99866   -0.03345   0.06035   0.04239   0.99866   -0.03345   97.28394
668   0.06044   0.04184   0.99869   -0.03305   0.06044   0.04184   0.99869   -0.03305   97.27173
669   0.06044   0.04279   0.99869   -0.03351   0.06044   0.04279   0.99869   -0.03351   97.25647
670   0.06039   0.04178   0.99866   -0.03397   0.06039   0.04178   0.99866   -0.03397   97.36023
671   0.06046   0.04212   0.99878   -0.03467   0.06046   0.04212   0.99878   -0.03467   97.25647
672   0.06047   0.04169   0.99875   -0.03287   0.06047   0.04169   0.99875   -0.03287   97.31750
673   0.06046   0.04260   0.99872   -0.03433   0.06046   0.04260   0.99872   -0.03433   97.25647
674   0.06040   0.04209   0.99872   -0.03458   0.06040   0.04209   0.99872   -0.03458   97.43652
675   0.06047   0.04230   0.99872   -0.03385   0.06047   0.04230   0.99872   -0.03385   97.34802
676   0.06052   0.04291   0.99863   -0.03491   0.06052   0.04291   0.99863   -0.03491   97.25952
677   0.06035   0.04263   0.99866   -0.03485   0.06035   0.04263   0.99866   -0.03485   97.34497
678   0.06019   0.04135   0.99887   -0.03314   0.06019   0.04135   0.99887   -0.03314   97.36633
679   0.06040   0.04312   0.99878   -0.03403   0.06040   0.04312   0.99878   -0.03403   97.14966
680   0.06051   0.04285   0.99869   -0.03360   0.06051   0.04285   0.99869   -0.03360   97.18323
681   0.06043   0.04270   0.99866   -0.03442   0.06043   0.04270   0.99866   -0.03442   97.30225
682   0.06037   0.04312   0.99863   -0.03442   0.06037   0.04312   0.99863   -0.03442   97.36023
683   0.06046   0.04184   0.99875   -0.03436   0.06046   0.04184   0.99875   -0.03436   97.22595
684   0.06053   0.04300   0.99866   -0.03449   0.06053   0.04300   0.99866   -0.03449   97.17102
685   0.06047   0.04270   0.99869   -0.03461   0.06047   0.04270   0.99869   -0.03461   97.24426
686   0.06042   0.04193   0.99866   -0.03406   0.06042   0.04193   0.99866   -0.03406   97.42126
687   0.06050   0.04248   0.99866   -0.03259   0.06050   0.04248   0.99866   -0.03259   97.27478
688   0.06048   0.04190   0.99875   -0.03375   0.06048   0.04190   0.99875   -0.03375   97.25952
689   0.06040   0.04221   0.99875   -0.03497   0.06040   0.04221   0.99875   -0.03497   97.36023
690   0.06034   0.04212   0.99869   -0.03388   0.06034   0.04212   0.99869   -0.03388   97.40295
691   0.06042   0.04184   0.99872   -0.03418   0.06042   0.04184   0.99872   -0.03418   97.27173
692   0.06043   0.04242   0.99866   -0.03433   0.06043   0.04242   0.99866   -0.03433   97.13440
693   0.06037   0.04248   0.99875   -0.03363   0.06037   0.04248   0.99875   -0.03363   97.36023
694   0.06043   0.04221   0.99875   -0.03446   0.06043   0.04221   0.99875   -0.03446   97.36328
695   0.06047   0.04343   0.99872   -0.03366   0.06047   0.04343   0.99872   -0.03366   97.18323
696   0.06050   0.04257   0.99875   -0.03464   0.06050   0.04257   0.99875   -0.03464   97.30530
697   0.06051   0.04227   0.99875   -0.03394   0.06051   0.04227   0.99875   -0.03394   97.41211
698   0.06045   0.04227   0.99866   -0.03354   0.06045   0.04227   0.99866   -0.03354   97.33276
699   0.06036   0.04233   0.99872   -0.03305   0.06036   0.04233   0.99872   -0.03305   97.29919
700   0.06042   0.04199   0.99875   -0.03336   0.06042   0.04199   0.99875   -0.03336   97.27173
701   0.06045   0.04221   0.99863   -0.03464   0.06045   0.04221   0.99863   -0.03464   97.36328
702   0.06042   0.04230   0.99872   -0.03406   0.06042   0.04230   0.99872   -0.03406   97.28699
703   0.06043   0.04175   0.99878   -0.03388   0.06043   0.04175   0.99878   -0.03388   97.24121
704   0.06036   0.04190   0.99875   -0.03397   0.06036   0.04190   0.99875   -0.03397   97.28394
705   0.06039   0.04178   0.99863   -0.03348   0.06039   0.04178   0.99863   -0.03348   97.39075
706   0.06047   0.04248   0.99872   -0.03363   0.06047   0.04248   0.99872   -0.03363   97.19849
707   0.06046   0.04190   0.99869   -0.03388   0.06046   0.04190   0.99869   -0.03388   97.24121
708   0.06039   0.04251   0.99866   -0.03342   0.06039   0.04251   0.99866   -0.03342   97.29919
709   0.06044   0.04202   0.99872   -0.03354   0.06044   0.04202   0.99872   -0.03354   97.37854
710   0.06049   0.04263   0.99863   -0.03342   0.06049   0.04263   0.99863   -0.03342   97.19849
711   0.06047   0.04102   0.99872   -0.03442   0.06047   0.04102   0.99872   -0.03442   97.22900
712   0.06040   0.04166   0.99872   -0.03409   0.06040   0.04166   0.99872   -0.03409   97.34497
713   0.06047   0.04263   0.99863   -0.03320   0.06047   0.04263   0.99863   -0.03320   97.22900
714   0.06046   0.04257   0.99869   -0.03442   0.06046   0.04257   0.99869   -0.03442   97.21069
715   0.06026   0.04257   0.99872   -0.03385   0.06026   0.04257   0.99872   -0.03385   97.29309
716   0.06030   0.04157   0.99872   -0.03430   0.06030   0.04157   0.99872   -0.03430   97.28088
717   0.06047   0.04236   0.99872   -0.03354   0.06047   0.04236   0.99872   -0.03354   97.39380
718   0.06045   0.04190   0.99875   -0.03519   0.06045   0.04190   0.99875   -0.03519   97.24121
719   0.06034   0.04202   0.99875   -0.03470   0.06034   0.04202   0.99875   -0.03470   97.35718
720   0.06039   0.04224   0.99866   -0.03455   0.06039   0.04224   0.99866   -0.03455   97.34497
721   0.06048   0.04224   0.99875   -0.03323   0.06048   0.04224   0.99875   -0.03323   97.19849
722   0.06047   0.04221   0.99869   -0.03433   0.06047   0.04221   0.99869   -0.03433   97.22900
723   0.06037   0.04218   0.99875   -0.03476   0.06037   0.04218   0.99875   -0.03476   97.40601
724   0.06037   0.04202   0.99875   -0.03418   0.06037   0.04202   0.99875   -0.03418   97.34497
725   0.06043   0.04196   0.99872   -0.03345   0.06043   0.04196   0.99872   -0.03345   97.21069
726   0.06039   0.04181   0.99872   -0.03397   0.06039   0.04181   0.99872   -0.03397   97.31445
727   0.06032   0.04276   0.99863   -0.03433   0.06032   0.04276   0.99863   -0.03433   97.49451
728   0.06036   0.04260   0.99863   -0.03354   0.06036   0.04260   0.99863   -0.03354   97.36023
729   0.06048   0.04157   0.99872   -0.03317   0.06048   0.04157   0.99872   -0.03317   97.18323
730   0.06043   0.04199   0.99872   -0.03265   0.06043   0.04199   0.99872   -0.03265   97.28699
731   0.06034   0.04071   0.99863   -0.03403   0.06034   0.04071   0.99863   -0.03403   97.47925
732   0.06043   0.04181   0.99863   -0.03345   0.06043   0.04181   0.99863   -0.03345   97.33276
733   0.06052   0.04245   0.99872   -0.03351   0.06052   0.04245   0.99872   -0.03351   97.22900
734   0.06047   0.04205   0.99866   -0.03406   0.06047   0.04205   0.99866   -0.03406   97.27173
735   0.06037   0.04147   0.99875   -0.03470   0.06037   0.04147   0.99875   -0.03470   97.40601
736   0.06042   0.04233   0.99872   -0.03354   0.06042   0.04233   0.99872   -0.03354   97.31750
737   0.06044   0.04303   0.99875   -0.03330   0.06044   0.04303   0.99875   -0.03330   97.19543
738   0.06040   0.04291   0.99872   -0.03433   0.06040   0.04291   0.99872   -0.03433   97.25342
739   0.06033   0.04151   0.99866   -0.03482   0.06033   0.04151   0.99866   -0.03482   97.40295
740   0.06044   0.04300   0.99872   -0.03339   0.06044   0.04300   0.99872   -0.03339   97.30225
741   0.06047   0.04196   0.99872   -0.03275   0.06047   0.04196   0.99872   -0.03275   97.19849
742   0.06042   0.04184   0.99866   -0.03427   0.06042   0.04184   0.99866   -0.03427   97.36023
743   0.06036   0.04184   0.99863   -0.03336   0.06036   0.04184   0.99863   -0.03336   97.46399
744   0.06047   0.04227   0.99866   -0.03333   0.06047   0.04227   0.99866   -0.03333   97.28699
745   0.06049   0.04273   0.99863   -0.03351   0.06049   0.04273   0.99863   -0.03351   97.22900
746   0.06046   0.04300   0.99866   -0.03400   0.06046   0.04300   0.99866   -0.03400   97.31750
747   0.06038   0.04209   0.99875   -0.03385   0.06038   0.04209   0.99875   -0.03385   97.51282
748   0.06044   0.04178   0.99866   -0.03327   0.06044   0.04178   0.99866   -0.03327   97.33276
749   0.06040   0.04205   0.99866   -0.03427   0.06040   0.04205   0.99866   -0.03427   97.22595
750   0.06035   0.04230   0.99875   -0.03406   0.06035   0.04230   0.99875   -0.03406   97.39075
751   0.06037   0.04187   0.99872   -0.03409   0.06037   0.04187   0.99872   -0.03409   97.37549
752   0.06047   0.04193   0.99863   -0.03366   0.06047   0.04193   0.99863   -0.03366   97.19849
753   0.06046   0.04163   0.99863   -0.03388   0.06046   0.04163   0.99863   -0.03388   97.30225
754   0.06044   0.04242   0.99875   -0.03516   0.06044   0.04242   0.99875   -0.03516   97.30225
755   0.06044   0.04221   0.99875   -0.03375   0.06044   0.04221   0.99875   -0.03375   97.24121
756   0.06049   0.04245   0.99875   -0.03372   0.06049   0.04245   0.99875   -0.03372   97.29004
757   0.06043   0.04144   0.99869   -0.03348   0.06043   0.04144   0.99869   -0.03348   97.30225
758   0.06044   0.04248   0.99866   -0.03442   0.06044   0.04248   0.99866   -0.03442   97.30225
759   0.06042   0.04105   0.99890   -0.03342   0.06042   0.04105   0.99890   -0.03342   97.37549
760   0.06040   0.04151   0.99875   -0.03348   0.06040   0.04151   0.99875   -0.03348   97.28394
761   0.06035   0.04187   0.99866   -0.03397   0.06035   0.04187   0.99866   -0.03397   97.34497
762   0.06038   0.04178   0.99875   -0.03449   0.06038   0.04178   0.99875   -0.03449   97.29919
763   0.06042   0.04251   0.99866   -0.03363   0.06042   0.04251   0.99866   -0.03363   97.25647
764   0.06038   0.04196   0.99866   -0.03256   0.06038   0.04196   0.99866   -0.03256   97.29919
765   0.06042   0.04294   0.99872   -0.03403   0.06042   0.04294   0.99872   -0.03403   97.25647
766   0.06044   0.04212   0.99866   -0.03385   0.06044   0.04212   0.99866   -0.03385   97.24121
767   0.06047   0.04273   0.99872   -0.03381   0.06047   0.04273   0.99872   -0.03381   97.19849
768   0.06046   0.04257   0.99878   -0.03412   0.06046   0.04257   0.99878   -0.03412   97.27173
769   0.06043   0.04254   0.99863   -0.03412   0.06043   0.04254   0.99863   -0.03412   97.33276
770   0.06049   0.04291   0.99869   -0.03461   0.06049   0.04291   0.99869   -0.03461   97.21375
771   0.06046   0.04218   0.99869   -0.03415   0.06046   0.04218   0.99869   -0.03415   97.25647
772   0.06036   0.04132   0.99872   -0.03421   0.06036   0.04132   0.99872   -0.03421   97.29919
773   0.06036   0.04230   0.99872   -0.03458   0.06036   0.04230   0.99872   -0.03458   97.32971
774   0.06042   0.04178   0.99875   -0.03378   0.06042   0.04178   0.99875   -0.03378   97.28699
775   0.06046   0.04245   0.99872   -0.03372   0.06046   0.04245   0.99872   -0.03372   97.18018
776   0.06040   0.04315   0.99872   -0.03473   0.06040   0.04315   0.99872   -0.03473   97.23816
777   0.06041   0.04251   0.99875   -0.03473   0.06041   0.04251   0.99875   -0.03473   97.40601
778   0.06055   0.04221   0.99863   -0.03302   0.06055   0.04221   0.99863   -0.03302   97.27783
779   0.06052   0.04129   0.99863   -0.03348   0.06052   0.04129   0.99863   -0.03348   97.29004
780   0.06040   0.04178   0.99869   -0.03458   0.06040   0.04178   0.99869   -0.03458   97.36023
781   0.06043   0.04248   0.99872   -0.03433   0.06043   0.04248   0.99872   -0.03433   97.37854
782   0.06051   0.04245   0.99872   -0.03281   0.06051   0.04245   0.99872   -0.03281   97.29004
783   0.06047   0.04270   0.99875   -0.03381   0.06047   0.04270   0.99875   -0.03381   97.21375
784   0.06028   0.04276   0.99866   -0.03333   0.06028   0.04276   0.99866   -0.03333   97.34192
785   0.06037   0.04270   0.99869   -0.03394   0.06037   0.04270   0.99869   -0.03394   97.28394
786   0.06044   0.04184   0.99869   -0.03327   0.06044   0.04184   0.99869   -0.03327   97.27173
787   0.06043   0.04172   0.99869   -0.03397   0.06043   0.04172   0.99869   -0.03397   97.18018
788   0.06035   0.04117   0.99866   -0.03342   0.06035   0.04117   0.99866   -0.03342   97.37549
789   0.06041   0.04276   0.99869   -0.03330   0.06041   0.04276   0.99869   -0.03330   97.45178
790   0.06048   0.04196   0.99869   -0.03397   0.06048   0.04196   0.99869   -0.03397   97.22900
791   0.06047   0.04215   0.99875   -0.03323   0.06047   0.04215   0.99875   -0.03323   97.30225
792   0.06038   0.04279   0.99863   -0.03403   0.06038   0.04279   0.99863   -0.03403   97.43652
793   0.06046   0.04169   0.99869   -0.03388   0.06046   0.04169   0.99869   -0.03388   97.39380
794   0.06052   0.04245   0.99878   -0.03394   0.06052   0.04245   0.99878   -0.03394   97.10999
795   0.06039   0.04205   0.99869   -0.03305   0.06039   0.04205   0.99869   -0.03305   97.32971
796   0.06022   0.04166   0.99887   -0.03269   0.06022   0.04166   0.99887   -0.03269   97.38464
797   0.06022   0.04257   0.99872   -0.03436   0.06022   0.04257   0.99872   -0.03436   97.32361
798   0.06041   0.04209   0.99866   -0.03415   0.06041   0.04209   0.99866   -0.03415   97.25647
799   0.06048   0.04242   0.99869   -0.03473   0.06048   0.04242   0.99869   -0.03473   97.21375
800   0.06033   0.04193   0.99875   -0.03278   0.06033   0.04193   0.99875   -0.03278   97.41821
801   0.06040   0.04199   0.99869   -0.03388   0.06040   0.04199   0.99869   -0.03388   97.23816
802   0.06041   0.04294   0.99872   -0.03452   0.06041   0.04294   0.99872   -0.03452   97.37549
803   0.06045   0.04242   0.99866   -0.03455   0.06045   0.04242   0.99866   -0.03455   97.25647
804   0.06040   0.04242   0.99863   -0.03394   0.06040   0.04242   0.99863   -0.03394   97.45178
805   0.06046   0.04166   0.99869   -0.03348   0.06046   0.04166   0.99869   -0.03348   97.24121
806   0.06044   0.04251   0.99863   -0.03281   0.06044   0.04251   0.99863   -0.03281   97.21069
807   0.06034   0.04239   0.99863   -0.03375   0.06034   0.04239   0.99863   -0.03375   97.40295
808   0.06035   0.04254   0.99869   -0.03354   0.06035   0.04254   0.99869   -0.03354   97.26868
809   0.06042   0.04279   0.99866   -0.03403   0.06042   0.04279   0.99866   -0.03403   97.24121
810   0.06040   0.04196   0.99872   -0.03366   0.06040   0.04196   0.99872   -0.03366   97.25342
811   0.06039   0.04218   0.99863   -0.03354   0.06039   0.04218   0.99863   -0.03354   97.32971
812   0.06042   0.04190   0.99875   -0.03357   0.06042   0.04190   0.99875   -0.03357   97.34802
813   0.06051   0.04166   0.99872   -0.03345   0.06051   0.04166   0.99872   -0.03345   97.32056
814   0.06050   0.04239   0.99875   -0.03363   0.06050   0.04239   0.99875   -0.03363   97.24426
815   0.06044   0.04242   0.99875   -0.03372   0.06044   0.04242   0.99875   -0.03372   97.22595
816   0.06051   0.04205   0.99872   -0.03345   0.06051   0.04205   0.99872   -0.03345   97.30530
817   0.06053   0.04266   0.99869   -0.03351   0.06053   0.04266   0.99869   -0.03351   97.35107
818   0.06047   0.04218   0.99869   -0.03345   0.06047   0.04218   0.99869   -0.03345   97.28699
819   0.06038   0.04242   0.99869   -0.03385   0.06038   0.04242   0.99869   -0.03385   97.25342
820   0.06045   0.04184   0.99875   -0.03317   0.06045   0.04184   0.99875   -0.03317   97.16492
821   0.06045   0.04141   0.99872   -0.03378   0.06045   0.04141   0.99872   -0.03378   97.24121
822   0.06039   0.04178   0.99875   -0.03357   0.06039   0.04178   0.99875   -0.03357   97.32971
823   0.06041   0.04093   0.99878   -0.03360   0.06041   0.04093   0.99878   -0.03360   97.34497
824   0.06047   0.04144   0.99866   -0.03327   0.06047   0.04144   0.99866   -0.03327   97.36328
825   0.06043   0.04181   0.99866   -0.03406   0.06043   0.04181   0.99866   -0.03406   97.34802
826   0.06044   0.04199   0.99869   -0.03476   0.06044   0.04199   0.99869   -0.03476   97.30225
827   0.06046   0.04160   0.99863   -0.03275   0.06046   0.04160   0.99863   -0.03275   97.33276
828   0.06051   0.04248   0.99869   -0.03302   0.06051   0.04248   0.99869   -0.03302   97.27478
829   0.06043   0.04236   0.99869   -0.03424   0.06043   0.04236   0.99869   -0.03424   97.40906
830   0.06035   0.04230   0.99863   -0.03446   0.06035   0.04230   0.99863   -0.03446   97.41821
831   0.06039   0.04236   0.99872   -0.03323   0.06039   0.04236   0.99872   -0.03323   97.25342
832   0.06047   0.04178   0.99875   -0.03305   0.06047   0.04178   0.99875   -0.03305   97.10693
833   0.06038   0.04129   0.99866   -0.03360   0.06038   0.04129   0.99866   -0.03360   97.25342
834   0.06037   0.04193   0.99866   -0.03427   0.06037   0.04193   0.99866   -0.03427   97.34497
835   0.06044   0.04147   0.99890   -0.03269   0.06044   0.04147   0.99890   -0.03269   97.21069
836   0.06048   0.04288   0.99866   -0.03290   0.06048   0.04288   0.99866   -0.03290   97.24426
837   0.06039   0.04169   0.99869   -0.03409   0.06039   0.04169   0.99869   -0.03409   97.34497
838   0.06039   0.04154   0.99869   -0.03400   0.06039   0.04154   0.99869   -0.03400   97.39075
839   0.06047   0.04169   0.99878   -0.03305   0.06047   0.04169   0.99878   -0.03305   97.33276
840   0.06053   0.04273   0.99863   -0.03369   0.06053   0.04273   0.99863   -0.03369   97.17102
841   0.06038   0.04163   0.99872   -0.03369   0.06038   0.04163   0.99872   -0.03369   97.37549
842   0.06037   0.04184   0.99872   -0.03327   0.06037   0.04184   0.99872   -0.03327   97.37549
843   0.06042   0.04163   0.99863   -0.03317   0.06042   0.04163   0.99863   -0.03317   97.24121
844   0.06044   0.04151   0.99863   -0.03369   0.06044   0.04151   0.99863   -0.03369   97.25647
845   0.06033   0.04163   0.99878   -0.03317   0.06033   0.04163   0.99878   -0.03317   97.50977
846   0.06038   0.04184   0.99869   -0.03305   0.06038   0.04184   0.99869   -0.03305   97.34497
847   0.06048   0.04230   0.99863   -0.03372   0.06048   0.04230   0.99863   -0.03372   97.25952
848   0.06047   0.04324   0.99863   -0.03418   0.06047   0.04324   0.99863   -0.03418   97.27478
849   0.06039   0.04245   0.99866   -0.03403   0.06039   0.04245   0.99866   -0.03403   97.37549
850   0.06045   0.04294   0.99863   -0.03351   0.06045   0.04294   0.99863   -0.03351   97.28699
851   0.06050   0.04248   0.99872   -0.03229   0.06050   0.04248   0.99872   -0.03229   97.18323
852   0.06047   0.04282   0.99872   -0.03412   0.06047   0.04282   0.99872   -0.03412   97.37854
853   0.06037   0.04285   0.99869   -0.03381   0.06037   0.04285   0.99869   -0.03381   97.39075
854   0.06041   0.04260   0.99863   -0.03333   0.06041   0.04260   0.99863   -0.03333   97.28699
855   0.06041   0.04205   0.99875   -0.03314   0.06041   0.04205   0.99875   -0.03314   97.21069
856   0.06039   0.04154   0.99866   -0.03400   0.06039   0.04154   0.99866   -0.03400   97.37549
857   0.06032   0.04282   0.99866   -0.03412   0.06032   0.04282   0.99866   -0.03412   97.43347
858   0.06042   0.04273   0.99863   -0.03281   0.06042   0.04273   0.99863   -0.03281   97.37549
859   0.06047   0.04318   0.99869   -0.03400   0.06047   0.04318   0.99869   -0.03400   97.15271
860   0.06047   0.04276   0.99875   -0.03464   0.06047   0.04276   0.99875   -0.03464   97.21375
861   0.06040   0.04169   0.99872   -0.03336   0.06040   0.04169   0.99872   -0.03336   97.37549
862   0.06049   0.04279   0.99869   -0.03299   0.06049   0.04279   0.99869   -0.03299   97.21375
863   0.06046   0.04254   0.99869   -0.03363   0.06046   0.04254   0.99869   -0.03363   97.34802
864   0.06044   0.04270   0.99869   -0.03442   0.06044   0.04270   0.99869   -0.03442   97.30225
865   0.06041   0.04190   0.99875   -0.03375   0.06041   0.04190   0.99875   -0.03375   97.36023
866   0.06040   0.04209   0.99869   -0.03436   0.06040   0.04209   0.99869   -0.03436   97.26868
867   0.06037   0.04248   0.99875   -0.03385   0.06037   0.04248   0.99875   -0.03385   97.36023
868   0.06037   0.04190   0.99866   -0.03366   0.06037   0.04190   0.99866   -0.03366   97.34497
869   0.06044   0.04169   0.99869   -0.03458   0.06044   0.04169   0.99869   -0.03458   97.24121
870   0.06046   0.04193   0.99866   -0.03406   0.06046   0.04193   0.99866   -0.03406   97.36328
871   0.06043   0.04230   0.99875   -0.03406   0.06043   0.04230   0.99875   -0.03406   97.28699
872   0.06043   0.04230   0.99872   -0.03406   0.06043   0.04230   0.99872   -0.03406   97.27173
873   0.06048   0.04151   0.99890   -0.03278   0.06048   0.04151   0.99890   -0.03278   97.18323
874   0.06050   0.04376   0.99869   -0.03436   0.06050   0.04376   0.99869   -0.03436   97.15271
875   0.06044   0.04251   0.99878   -0.03473   0.06044   0.04251   0.99878   -0.03473   97.37854
876   0.06043   0.04245   0.99869   -0.03354   0.06043   0.04245   0.99869   -0.03354   97.36328
877   0.06040   0.04263   0.99869   -0.03385   0.06040   0.04263   0.99869   -0.03385   97.21069
878   0.06021   0.04230   0.99872   -0.03357   0.06021   0.04230   0.99872   -0.03357   97.35107
879   0.06034   0.04315   0.99869   -0.03452   0.06034   0.04315   0.99869   -0.03452   97.32666
880   0.06044   0.04117   0.99863   -0.03369   0.06044   0.04117   0.99863   -0.03369   97.34802
881   0.06051   0.04245   0.99872   -0.03302   0.06051   0.04245   0.99872   -0.03302   97.29004
882   0.06044   0.04221   0.99872   -0.03497   0.06044   0.04221   0.99872   -0.03497   97.30225
883   0.06038   0.04248   0.99863   -0.03403   0.06038   0.04248   0.99863   -0.03403   97.37549
884   0.06045   0.04141   0.99872   -0.03378   0.06045   0.04141   0.99872   -0.03378   97.39380
885   0.06056   0.04218   0.99875   -0.03412   0.06056   0.04218   0.99875   -0.03412   97.26257
886   0.06049   0.04263   0.99863   -0.03442   0.06049   0.04263   0.99863   -0.03442   97.27478
887   0.06043   0.04196   0.99878   -0.03406   0.06043   0.04196   0.99878   -0.03406   97.37854
888   0.06047   0.04181   0.99863   -0.03327   0.06047   0.04181   0.99863   -0.03327   97.27173
889   0.06052   0.04181   0.99866   -0.03345   0.06052   0.04181   0.99866   -0.03345   97.19849
890   0.06038   0.04236   0.99869   -0.03446   0.06038   0.04236   0.99869   -0.03446   97.32971
891   0.06035   0.04227   0.99869   -0.03345   0.06035   0.04227   0.99869   -0.03345   97.37549
892   0.06044   0.04245   0.99863   -0.03342   0.06044   0.04245   0.99863   -0.03342   97.28699
893   0.06047   0.04190   0.99869   -0.03336   0.06047   0.04190   0.99869   -0.03336   97.24426
894   0.06039   0.04279   0.99869   -0.03442   0.06039   0.04279   0.99869   -0.03442   97.43652
895   0.06040   0.04221   0.99863   -0.03394   0.06040   0.04221   0.99863   -0.03394   97.46704
896   0.06053   0.04248   0.99872   -0.03229   0.06053   0.04248   0.99872   -0.03229   97.29004
897   0.06059   0.04181   0.99863   -0.03372   0.06059   0.04181   0.99863   -0.03372   97.33887
898   0.06039   0.04245   0.99866   -0.03403   0.06039   0.04245   0.99866   -0.03403   97.37549
899   0.06033   0.04279   0.99866   -0.03354   0.06033   0.04279   0.99866   -0.03354   97.41821
900   0.06052   0.04263   0.99866   -0.03360   0.06052   0.04263   0.99866   -0.03360   97.16797
901   0.06053   0.04257   0.99875   -0.03391   0.06053   0.04257   0.99875   -0.03391   97.30530
902   0.06037   0.04199   0.99872   -0.03336   0.06037   0.04199   0.99872   -0.03336   97.48230
903   0.06040   0.04236   0.99878   -0.03385   0.06040   0.04236   0.99878   -0.03385   97.25342
904   0.06046   0.04263   0.99869   -0.03433   0.06046   0.04263   0.99869   -0.03433   97.24121
905   0.06047   0.04248   0.99866   -0.03424   0.06047   0.04248   0.99866   -0.03424   97.25647
906   0.06041   0.04212   0.99869   -0.03455   0.06041   0.04212   0.99869   -0.03455   97.40601
907   0.06044   0.04181   0.99863   -0.03366   0.06044   0.04181   0.99863   -0.03366   97.31750
908   0.06047   0.04242   0.99878   -0.03302   0.06047   0.04242   0.99878   -0.03302   97.21375
909   0.06047   0.04205   0.99875   -0.03385   0.06047   0.04205   0.99875   -0.03385   97.22900
910   0.06045   0.04154   0.99872   -0.03439   0.06045   0.04154   0.99872   -0.03439   97.31750
911   0.06046   0.04279   0.99869   -0.03229   0.06046   0.04279   0.99869   -0.03229   97.30225
912   0.06047   0.04212   0.99863   -0.03394   0.06047   0.04212   0.99863   -0.03394   97.28699
913   0.06049   0.04105   0.99869   -0.03461   0.06049   0.04105   0.99869   -0.03461   97.33582
914   0.06032   0.04245   0.99863   -0.03293   0.06032   0.04245   0.99863   -0.03293   97.35718
915   0.06024   0.04193   0.99869   -0.03348   0.06024   0.04193   0.99869   -0.03348   97.18628
916   0.06040   0.04392   0.99875   -0.03314   0.06040   0.04392   0.99875   -0.03314   97.25342
917   0.06047   0.04364   0.99869   -0.03436   0.06047   0.04364   0.99869   -0.03436   97.28699
918   0.06037   0.04227   0.99878   -0.03385   0.06037   0.04227   0.99878   -0.03385   97.37549
919   0.06038   0.04273   0.99863   -0.03302   0.06038   0.04273   0.99863   -0.03302   97.28394
920   0.06046   0.04190   0.99872   -0.03357   0.06046   0.04190   0.99872   -0.03357   97.13745
921   0.06040   0.04120   0.99872   -0.03378   0.06040   0.04120   0.99872   -0.03378   97.46704
922   0.06042   0.04105   0.99866   -0.03369   0.06042   0.04105   0.99866   -0.03369   97.31750
923   0.06044   0.04248   0.99875   -0.03363   0.06044   0.04248   0.99875   -0.03363   97.25647
924   0.06040   0.04160   0.99869   -0.03479   0.06040   0.04160   0.99869   -0.03479   97.37549
925   0.06032   0.04276   0.99863   -0.03363   0.06032   0.04276   0.99863   -0.03363   97.38770
926   0.06040   0.04172   0.99872   -0.03348   0.06040   0.04172   0.99872   -0.03348   97.26868
927   0.06040   0.04160   0.99872   -0.03430   0.06040   0.04160   0.99872   -0.03430   97.26868
928   0.06038   0.04163   0.99872   -0.03461   0.06038   0.04163   0.99872   -0.03461   97.19238
929   0.06038   0.04178   0.99869   -0.03388   0.06038   0.04178   0.99869   -0.03388   97.28394
930   0.06047   0.04218   0.99869   -0.03345   0.06047   0.04218   0.99869   -0.03345   97.28699
931   0.06041   0.04202   0.99866   -0.03314   0.06041   0.04202   0.99866   -0.03314   97.39075
932   0.06040   0.04239   0.99869   -0.03394   0.06040   0.04239   0.99869   -0.03394   97.32971
933   0.06037   0.04184   0.99875   -0.03296   0.06037   0.04184   0.99875   -0.03296   97.42126
934   0.06049   0.04215   0.99869   -0.03354   0.06049   0.04215   0.99869   -0.03354   97.35107
935   0.06044   0.04209   0.99875   -0.03336   0.06044   0.04209   0.99875   -0.03336   97.31750
936   0.06036   0.04282   0.99869   -0.03433   0.06036   0.04282   0.99869   -0.03433   97.37549
937   0.06033   0.04288   0.99863   -0.03473   0.06033   0.04288   0.99863   -0.03473   97.25037
938   0.06045   0.04205   0.99872   -0.03232   0.06045   0.04205   0.99872   -0.03232   97.28699
939   0.06039   0.04199   0.99869   -0.03388   0.06039   0.04199   0.99869   -0.03388   97.25342
940   0.06034   0.04147   0.99863   -0.03400   0.06034   0.04147   0.99863   -0.03400   97.37244
941   0.06042   0.04346   0.99866   -0.03317   0.06042   0.04346   0.99866   -0.03317   97.28699
942   0.06052   0.04248   0.99875   -0.03290   0.06052   0.04248   0.99875   -0.03290   97.16797
943   0.06044   0.04331   0.99863   -0.03430   0.06044   0.04331   0.99863   -0.03430   97.21069
944   0.06039   0.04300   0.99875   -0.03452   0.06039   0.04300   0.99875   -0.03452   97.34497
945   0.06047   0.04175   0.99866   -0.03397   0.06047   0.04175   0.99866   -0.03397   97.24426
946   0.06052   0.04263   0.99869   -0.03311   0.06052   0.04263   0.99869   -0.03311   97.21375
947   0.06041   0.04270   0.99872   -0.03433   0.06041   0.04270   0.99872   -0.03433   97.24121
948   0.06032   0.04157   0.99869   -0.03409   0.06032   0.04157   0.99869   -0.03409   97.38770
949   0.06039   0.04257   0.99875   -0.03385   0.06039   0.04257   0.99875   -0.03385   97.25342
950   0.06047   0.04202   0.99869   -0.03336   0.06047   0.04202   0.99869   -0.03336   97.18323
951   0.06039   0.04340   0.99875   -0.03461   0.06039   0.04340   0.99875   -0.03461   97.28394
952   0.06035   0.04199   0.99875   -0.03378   0.06035   0.04199   0.99875   -0.03378   97.37549
953   0.06046   0.04190   0.99872   -0.03354   0.06046   0.04190   0.99872   -0.03354   97.28699
954   0.06048   0.04245   0.99875   -0.03323   0.06048   0.04245   0.99875   -0.03323   97.19849
955   0.06039   0.04224   0.99863   -0.03314   0.06039   0.04224   0.99863   -0.03314   97.40601
956   0.06039   0.04144   0.99863   -0.03378   0.06039   0.04144   0.99863   -0.03378   97.43652
957   0.06048   0.04209   0.99863   -0.03354   0.06048   0.04209   0.99863   -0.03354   97.27478
958   0.06048   0.04230   0.99875   -0.03385   0.06048   0.04230   0.99875   -0.03385   97.19849
959   0.06035   0.04242   0.99872   -0.03262   0.06035   0.04242   0.99872   -0.03262   97.37549
960   0.06035   0.04184   0.99863   -0.03427   0.06035   0.04184   0.99863   -0.03427   97.29919
961   0.06040   0.04178   0.99869   -0.03409   0.06040   0.04178   0.99869   -0.03409   97.25342
962   0.06040   0.04202   0.99869   -0.03375   0.06040   0.04202   0.99869   -0.03375   97.13440
963   0.06035   0.04166   0.99875   -0.03430   0.06035   0.04166   0.99875   -0.03430   97.28394
964   0.06039   0.04196   0.99875   -0.03406   0.06039   0.04196   0.99875   -0.03406   97.28394
965   0.06044   0.04160   0.99875   -0.03308   0.06044   0.04160   0.99875   -0.03308   97.30225
966   0.06042   0.04144   0.99866   -0.03348   0.06042   0.04144   0.99866   -0.03348   97.30225
967   0.06043   0.04236   0.99875   -0.03485   0.06043   0.04236   0.99875   -0.03485   97.28699
968   0.06047   0.04190   0.99869   -0.03314   0.06047   0.04190   0.99869   -0.03314   97.24426
969   0.06047   0.04199   0.99869   -0.03345   0.06047   0.04199   0.99869   -0.03345   97.27478
970   0.06044   0.04221   0.99872   -0.03385   0.06044   0.04221   0.99872   -0.03385   97.33276
971   0.06038   0.04160   0.99878   -0.03348   0.06038   0.04160   0.99878   -0.03348   97.39075
972   0.06039   0.04254   0.99863   -0.03485   0.06039   0.04254   0.99863   -0.03485   97.20764
973   0.06041   0.04236   0.99872   -0.03375   0.06041   0.04236   0.99872   -0.03375   97.32971
974   0.06038   0.04166   0.99866   -0.03418   0.06038   0.04166   0.99866   -0.03418   97.31445
975   0.06040   0.04169   0.99875   -0.03378   0.06040   0.04169   0.99875   -0.03378   97.39075
976   0.06046   0.04199   0.99866   -0.03323   0.06046   0.04199   0.99866   -0.03323   97.28699
977   0.06046   0.04270   0.99875   -0.03342   0.06046   0.04270   0.99875   -0.03342   97.36328
978   0.06048   0.04199   0.99866   -0.03415   0.06048   0.04199   0.99866   -0.03415   97.36328
979   0.06051   0.04166   0.99872   -0.03345   0.06051   0.04166   0.99872   -0.03345   97.32056
980   0.06047   0.04160   0.99887   -0.03247   0.06047   0.04160   0.99887   -0.03247   97.21375
981   0.06043   0.04245   0.99866   -0.03403   0.06043   0.04245   0.99866   -0.03403   97.31750
982   0.06045   0.04221   0.99869   -0.03436   0.06045   0.04221   0.99869   -0.03436   97.27173
983   0.06044   0.04205   0.99866   -0.03406   0.06044   0.04205   0.99866   -0.03406   97.31750
984   0.06040   0.04157   0.99869   -0.03391   0.06040   0.04157   0.99869   -0.03391   97.11914
985   0.06038   0.04212   0.99875   -0.03446   0.06038   0.04212   0.99875   -0.03446   97.36023
986   0.06035   0.04123   0.99875   -0.03412   0.06035   0.04123   0.99875   -0.03412   97.31445
987   0.06041   0.04209   0.99866   -0.03232   0.06041   0.04209   0.99866   -0.03232   97.31445
988   0.06049   0.04260   0.99869   -0.03412   0.06049   0.04260   0.99869   -0.03412   97.18323
989   0.06044   0.04163   0.99872   -0.03439   0.06044   0.04163   0.99872   -0.03439   97.25647
990   0.06035   0.04144   0.99875   -0.03430   0.06035   0.04144   0.99875   -0.03430   97.43347
991   0.06052   0.04178   0.99869   -0.03345   0.06052   0.04178   0.99869   -0.03345   97.21375
992   0.06050   0.04239   0.99869   -0.03320   0.06050   0.04239   0.99869   -0.03320   97.21375
993   0.06042   0.04135   0.99866   -0.03418   0.06042   0.04135   0.99866   -0.03418   97.34802
994   0.06039   0.04227   0.99872   -0.03345   0.06039   0.04227   0.99872   -0.03345   97.32971
995   0.06047   0.04202   0.99872   -0.03375   0.06047   0.04202   0.99872   -0.03375   97.19849
996   0.06031   0.04315   0.99863   -0.03320   0.06031   0.04315   0.99863   -0.03320   97.23511
997   0.06015   0.04172   0.99875   -0.03412   0.06015   0.04172   0.99875   -0.03412   97.36633
998   0.06038   0.04291   0.99875   -0.03403   0.06038   0.04291   0.99875   -0.03403   97.32971
999   0.06055   0.04218   0.99875   -0.03342   0.06055   0.04218   0.99875   -0.03342   97.32056
1000   0.06046   0.04187   0.99872   -0.03314   0.06046   0.04187   0.99872   -0.03314   97.13745
1001   0.06032   0.04215   0.99869   -0.03397   0.06032   0.04215   0.99869   -0.03397   97.32666
1002   0.06040   0.04114   0.99869   -0.03320   0.06040   0.04114   0.99869   -0.03320   97.31445
1003   0.06053   0.04193   0.99878   -0.03223   0.06053   0.04193   0.99878   -0.03223   97.30530
1004   0.06048   0.04224   0.99872   -0.03375   0.06048   0.04224   0.99872   -0.03375   97.15271
1005   0.06036   0.04224   0.99872   -0.03375   0.06036   0.04224   0.99872   -0.03375   97.32971
1006   0.06040   0.04218   0.99866   -0.03485   0.06040   0.04218   0.99866   -0.03485   97.29919
1007   0.06046   0.04218   0.99866   -0.03375   0.06046   0.04218   0.99866   -0.03375   97.10693
1008   0.06040   0.04135   0.99872   -0.03409   0.06040   0.04135   0.99872   -0.03409   97.28394
1009   0.06036   0.04300   0.99872   -0.03412   0.06036   0.04300   0.99872   -0.03412   97.37549
1010   0.06044   0.04294   0.99872   -0.03400   0.06044   0.04294   0.99872   -0.03400   97.22595
1011   0.06045   0.04160   0.99869   -0.03336   0.06045   0.04160   0.99869   -0.03336   97.22595
1012   0.06043   0.04175   0.99878   -0.03409   0.06043   0.04175   0.99878   -0.03409   97.24121
1013   0.06046   0.04144   0.99866   -0.03449   0.06046   0.04144   0.99866   -0.03449   97.47009
1014   0.06051   0.04193   0.99878   -0.03415   0.06051   0.04193   0.99878   -0.03415   97.36633
1015   0.06047   0.04187   0.99866   -0.03397   0.06047   0.04187   0.99866   -0.03397   97.30225
1016   0.06046   0.04285   0.99872   -0.03351   0.06046   0.04285   0.99872   -0.03351   97.31750
1017   0.06047   0.04248   0.99863   -0.03259   0.06047   0.04248   0.99863   -0.03259   97.31750
1018   0.06048   0.04178   0.99863   -0.03375   0.06048   0.04178   0.99863   -0.03375   97.36328
1019   0.06038   0.04221   0.99863   -0.03323   0.06038   0.04221   0.99863   -0.03323   97.23816
1020   0.06038   0.04199   0.99863   -0.03327   0.06038   0.04199   0.99863   -0.03327   97.39075
1021   0.06038   0.04157   0.99887   -0.03269   0.06038   0.04157   0.99887   -0.03269   97.36023
1022   0.06045   0.04184   0.99869   -0.03357   0.06045   0.04184   0.99869   -0.03357   97.21069
1023   0.06044   0.04199   0.99869   -0.03385   0.06044   0.04199   0.99869   -0.03385   97.33276
1024   0.06041   0.04233   0.99863   -0.03433   0.06041   0.04233   0.99863   -0.03433   97.37549
1025   0.06042   0.04080   0.99887   -0.03302   0.06042   0.04080   0.99887   -0.03302   97.37549
1026   0.06047   0.04236   0.99872   -0.03442   0.06047   0.04236   0.99872   -0.03442   97.34802
1027   0.06047   0.04288   0.99869   -0.03473   0.06047   0.04288   0.99869   -0.03473   97.19849
1028   0.06045   0.04205   0.99872   -0.03394   0.06045   0.04205   0.99872   -0.03394   97.36328
1029   0.06047   0.04209   0.99875   -0.03314   0.06047   0.04209   0.99875   -0.03314   97.25952
1030   0.06044   0.04303   0.99863   -0.03461   0.06044   0.04303   0.99863   -0.03461   97.19543
1031   0.06035   0.04123   0.99869   -0.03372   0.06035   0.04123   0.99869   -0.03372   97.28394
1032   0.06040   0.04154   0.99866   -0.03357   0.06040   0.04154   0.99866   -0.03357   97.36023
1033   0.06044   0.04166   0.99869   -0.03418   0.06044   0.04166   0.99869   -0.03418   97.24121
1034   0.06041   0.04318   0.99872   -0.03391   0.06041   0.04318   0.99872   -0.03391   97.29919
1035   0.06040   0.04184   0.99878   -0.03479   0.06040   0.04184   0.99878   -0.03479   97.31445
1036   0.06044   0.04257   0.99872   -0.03391   0.06044   0.04257   0.99872   -0.03391   97.42432
1037   0.06047   0.04160   0.99872   -0.03287   0.06047   0.04160   0.99872   -0.03287   97.22900
1038   0.06047   0.04233   0.99875   -0.03372   0.06047   0.04233   0.99875   -0.03372   97.24426
1039   0.06043   0.04349   0.99863   -0.03336   0.06043   0.04349   0.99863   -0.03336   97.40906
1040   0.06051   0.04257   0.99863   -0.03381   0.06051   0.04257   0.99863   -0.03381   97.24426
1041   0.06048   0.04215   0.99866   -0.03333   0.06048   0.04215   0.99866   -0.03333   97.21375
1042   0.06041   0.04282   0.99866   -0.03391   0.06041   0.04282   0.99866   -0.03391   97.28699
1043   0.06031   0.04218   0.99872   -0.03366   0.06031   0.04218   0.99872   -0.03366   97.38770
1044   0.06044   0.04242   0.99866   -0.03433   0.06044   0.04242   0.99866   -0.03433   97.27173
1045   0.06045   0.04248   0.99875   -0.03293   0.06045   0.04248   0.99875   -0.03293   97.28699
1046   0.06040   0.04184   0.99875   -0.03348   0.06040   0.04184   0.99875   -0.03348   97.34497
1047   0.06036   0.04218   0.99866   -0.03397   0.06036   0.04218   0.99866   -0.03397   97.39075
1048   0.06048   0.04227   0.99878   -0.03293   0.06048   0.04227   0.99878   -0.03293   97.24426
1049   0.06049   0.04236   0.99866   -0.03333   0.06049   0.04236   0.99866   -0.03333   97.18323
1050   0.06046   0.04205   0.99863   -0.03476   0.06046   0.04205   0.99863   -0.03476   97.24121
1051   0.06041   0.04151   0.99866   -0.03388   0.06041   0.04151   0.99866   -0.03388   97.45178
1052   0.06049   0.04212   0.99863   -0.03302   0.06049   0.04212   0.99863   -0.03302   97.29004
1053   0.06047   0.04282   0.99872   -0.03412   0.06047   0.04282   0.99872   -0.03412   97.21375
1054   0.06035   0.04328   0.99875   -0.03369   0.06035   0.04328   0.99875   -0.03369   97.31445
1055   0.06036   0.04224   0.99866   -0.03336   0.06036   0.04224   0.99866   -0.03336   97.31445
1056   0.06046   0.04209   0.99872   -0.03366   0.06046   0.04209   0.99872   -0.03366   97.24121
1057   0.06047   0.04260   0.99869   -0.03534   0.06047   0.04260   0.99869   -0.03534   97.15271
1058   0.06035   0.04224   0.99863   -0.03366   0.06035   0.04224   0.99863   -0.03366   97.41821
1059   0.06046   0.04263   0.99869   -0.03363   0.06046   0.04263   0.99869   -0.03363   97.27173
1060   0.06051   0.04266   0.99866   -0.03381   0.06051   0.04266   0.99866   -0.03381   97.18323
1061   0.06048   0.04248   0.99872   -0.03394   0.06048   0.04248   0.99872   -0.03394   97.29004
1062   0.06041   0.04178   0.99866   -0.03418   0.06041   0.04178   0.99866   -0.03418   97.32971
1063   0.06047   0.04205   0.99872   -0.03253   0.06047   0.04205   0.99872   -0.03253   97.40906
1064   0.06047   0.04129   0.99875   -0.03327   0.06047   0.04129   0.99875   -0.03327   97.33276
1065   0.06042   0.04227   0.99872   -0.03345   0.06042   0.04227   0.99872   -0.03345   97.28699
1066   0.06032   0.04279   0.99875   -0.03385   0.06032   0.04279   0.99875   -0.03385   97.35718
1067   0.06045   0.04181   0.99863   -0.03436   0.06045   0.04181   0.99863   -0.03436   97.27173
1068   0.06045   0.04297   0.99863   -0.03409   0.06045   0.04297   0.99863   -0.03409   97.28699
1069   0.06042   0.04251   0.99863   -0.03442   0.06042   0.04251   0.99863   -0.03442   97.31750
1070   0.06042   0.04196   0.99869   -0.03415   0.06042   0.04196   0.99869   -0.03415   97.33276
1071   0.06045   0.04199   0.99875   -0.03336   0.06045   0.04199   0.99875   -0.03336   97.37854
1072   0.06046   0.04163   0.99875   -0.03348   0.06046   0.04163   0.99875   -0.03348   97.27173
1073   0.06045   0.04257   0.99872   -0.03394   0.06045   0.04257   0.99872   -0.03394   97.27173
1074   0.06045   0.04205   0.99875   -0.03345   0.06045   0.04205   0.99875   -0.03345   97.40906
1075   0.06050   0.04166   0.99878   -0.03336   0.06050   0.04166   0.99878   -0.03336   97.24426
1076   0.06044   0.04239   0.99872   -0.03363   0.06044   0.04239   0.99872   -0.03363   97.33276
1077   0.06035   0.04202   0.99872   -0.03397   0.06035   0.04202   0.99872   -0.03397   97.22290
1078   0.06027   0.04221   0.99875   -0.03327   0.06027   0.04221   0.99875   -0.03327   97.23511
1079   0.06043   0.04187   0.99872   -0.03388   0.06043   0.04187   0.99872   -0.03388   97.28699
1080   0.06046   0.04169   0.99866   -0.03510   0.06046   0.04169   0.99866   -0.03510   97.30225
1081   0.06047   0.04285   0.99875   -0.03421   0.06047   0.04285   0.99875   -0.03421   97.27173
1082   0.06048   0.04215   0.99872   -0.03375   0.06048   0.04215   0.99872   -0.03375   97.22900
1083   0.06047   0.04187   0.99869   -0.03397   0.06047   0.04187   0.99869   -0.03397   97.31750
1084   0.06049   0.04282   0.99866   -0.03531   0.06049   0.04282   0.99866   -0.03531   97.24426
1085   0.06050   0.04285   0.99863   -0.03317   0.06050   0.04285   0.99863   -0.03317   97.32056
1086   0.06054   0.04181   0.99863   -0.03394   0.06054   0.04181   0.99863   -0.03394   97.27478
1087   0.06052   0.04312   0.99875   -0.03409   0.06052   0.04312   0.99875   -0.03409   97.21375
1088   0.06041   0.04337   0.99875   -0.03400   0.06041   0.04337   0.99875   -0.03400   97.40601
1089   0.06044   0.04257   0.99872   -0.03442   0.06044   0.04257   0.99872   -0.03442   97.24121
1090   0.06046   0.04196   0.99866   -0.03354   0.06046   0.04196   0.99866   -0.03354   97.25647
1091   0.06044   0.04230   0.99869   -0.03415   0.06044   0.04230   0.99869   -0.03415   97.21069
1092   0.06036   0.04190   0.99869   -0.03497   0.06036   0.04190   0.99869   -0.03497   97.34497
1093   0.06045   0.04212   0.99869   -0.03314   0.06045   0.04212   0.99869   -0.03314   97.27173
1094   0.06049   0.04212   0.99869   -0.03293   0.06049   0.04212   0.99869   -0.03293   97.35107
1095   0.06047   0.04209   0.99866   -0.03446   0.06047   0.04209   0.99866   -0.03446   97.27173
1096   0.06041   0.04212   0.99875   -0.03424   0.06041   0.04212   0.99875   -0.03424   97.46704
1097   0.06056   0.04163   0.99875   -0.03345   0.06056   0.04163   0.99875   -0.03345   97.39685
1098   0.06051   0.04178   0.99863   -0.03375   0.06051   0.04178   0.99863   -0.03375   97.32056
1099   0.06037   0.04245   0.99878   -0.03436   0.06037   0.04245   0.99878   -0.03436   97.32971
1100   0.06037   0.04202   0.99875   -0.03449   0.06037   0.04202   0.99875   -0.03449   97.45178
1101   0.06049   0.04227   0.99869   -0.03446   0.06049   0.04227   0.99869   -0.03446   97.24426
1102   0.06051   0.04184   0.99863   -0.03363   0.06051   0.04184   0.99863   -0.03363   97.35107
1103   0.06040   0.04154   0.99872   -0.03348   0.06040   0.04154   0.99872   -0.03348   97.26868
1104   0.06035   0.04193   0.99863   -0.03406   0.06035   0.04193   0.99863   -0.03406   97.37244
1105   0.06049   0.04324   0.99878   -0.03308   0.06049   0.04324   0.99878   -0.03308   97.25952
1106   0.06054   0.04315   0.99878   -0.03400   0.06054   0.04315   0.99878   -0.03400   97.23206
1107   0.06044   0.04178   0.99872   -0.03427   0.06044   0.04178   0.99872   -0.03427   97.21069
1108   0.06039   0.04172   0.99872   -0.03305   0.06039   0.04172   0.99872   -0.03305   97.42126
1109   0.06050   0.04230   0.99872   -0.03363   0.06050   0.04230   0.99872   -0.03363   97.30530
1110   0.06054   0.04205   0.99866   -0.03403   0.06054   0.04205   0.99866   -0.03403   97.17102
1111   0.06044   0.04209   0.99878   -0.03446   0.06044   0.04209   0.99878   -0.03446   97.28699
1112   0.06043   0.04312   0.99875   -0.03360   0.06043   0.04312   0.99875   -0.03360   97.39380
1113   0.06051   0.04199   0.99866   -0.03272   0.06051   0.04199   0.99866   -0.03272   97.39685
1114   0.06047   0.04221   0.99869   -0.03314   0.06047   0.04221   0.99869   -0.03314   97.30225
1115   0.06023   0.04239   0.99872   -0.03409   0.06023   0.04239   0.99872   -0.03409   97.35413
1116   0.06039   0.04251   0.99872   -0.03455   0.06039   0.04251   0.99872   -0.03455   97.28394
1117   0.06053   0.04263   0.99866   -0.03412   0.06053   0.04263   0.99866   -0.03412   97.25952
1118   0.06047   0.04224   0.99869   -0.03446   0.06047   0.04224   0.99869   -0.03446   97.12219
1119   0.06036   0.04202   0.99875   -0.03418   0.06036   0.04202   0.99875   -0.03418   97.36023
1120   0.06046   0.04172   0.99875   -0.03418   0.06046   0.04172   0.99875   -0.03418   97.30225
1121   0.06049   0.04221   0.99866   -0.03412   0.06049   0.04221   0.99866   -0.03412   97.33582
1122   0.06047   0.04340   0.99875   -0.03510   0.06047   0.04340   0.99875   -0.03510   97.27478
1123   0.06037   0.04266   0.99878   -0.03433   0.06037   0.04266   0.99878   -0.03433   97.46704
1124   0.06044   0.04343   0.99863   -0.03348   0.06044   0.04343   0.99863   -0.03348   97.21069
1125   0.06041   0.04233   0.99863   -0.03415   0.06041   0.04233   0.99863   -0.03415   97.22595
1126   0.06041   0.04273   0.99872   -0.03311   0.06041   0.04273   0.99872   -0.03311   97.31445
1127   0.06040   0.04157   0.99872   -0.03500   0.06040   0.04157   0.99872   -0.03500   97.23816
1128   0.06045   0.04209   0.99872   -0.03293   0.06045   0.04209   0.99872   -0.03293   97.28699
1129   0.06045   0.04196   0.99866   -0.03375   0.06045   0.04196   0.99866   -0.03375   97.27173
1130   0.06046   0.04175   0.99872   -0.03436   0.06046   0.04175   0.99872   -0.03436   97.28699
1131   0.06045   0.04215   0.99866   -0.03406   0.06045   0.04215   0.99866   -0.03406   97.37854
1132   0.06047   0.04233   0.99866   -0.03363   0.06047   0.04233   0.99866   -0.03363   97.31750
1133   0.06047   0.04175   0.99866   -0.03427   0.06047   0.04175   0.99866   -0.03427   97.36328
1134   0.06044   0.04166   0.99875   -0.03427   0.06044   0.04166   0.99875   -0.03427   97.30225
1135   0.06044   0.04224   0.99869   -0.03354   0.06044   0.04224   0.99869   -0.03354   97.36328
1136   0.06044   0.04236   0.99872   -0.03345   0.06044   0.04236   0.99872   -0.03345   97.18018
1137   0.06038   0.04187   0.99863   -0.03378   0.06038   0.04187   0.99863   -0.03378   97.28394
1138   0.06035   0.04035   0.99887   -0.03427   0.06035   0.04035   0.99887   -0.03427   97.41821
1139   0.06047   0.04190   0.99863   -0.03323   0.06047   0.04190   0.99863   -0.03323   97.19849
1140   0.06049   0.04306   0.99869   -0.03360   0.06049   0.04306   0.99869   -0.03360   97.19849
1141   0.06040   0.04132   0.99863   -0.03479   0.06040   0.04132   0.99863   -0.03479   97.43652
1142   0.06044   0.04379   0.99869   -0.03427   0.06044   0.04379   0.99869   -0.03427   97.28699
1143   0.06049   0.04242   0.99875   -0.03333   0.06049   0.04242   0.99875   -0.03333   97.29004
1144   0.06049   0.04242   0.99863   -0.03302   0.06049   0.04242   0.99863   -0.03302   97.35107
1145   0.06042   0.04263   0.99869   -0.03455   0.06042   0.04263   0.99869   -0.03455   97.30225
1146   0.06046   0.04227   0.99866   -0.03476   0.06046   0.04227   0.99866   -0.03476   97.24121
1147   0.06048   0.04230   0.99869   -0.03342   0.06048   0.04230   0.99869   -0.03342   97.18323
1148   0.06040   0.04245   0.99869   -0.03354   0.06040   0.04245   0.99869   -0.03354   97.25342
1149   0.06036   0.04370   0.99857   -0.03488   0.06036   0.04370   0.99857   -0.03488   97.36023
1150   0.06035   0.04196   0.99878   -0.03409   0.06035   0.04196   0.99878   -0.03409   97.34497
1151   0.06046   0.04178   0.99863   -0.03375   0.06046   0.04178   0.99863   -0.03375   97.25647
1152   0.06044   0.04218   0.99875   -0.03385   0.06044   0.04218   0.99875   -0.03385   97.19543
1153   0.06037   0.04294   0.99872   -0.03473   0.06037   0.04294   0.99872   -0.03473   97.43652
1154   0.06041   0.04288   0.99863   -0.03290   0.06041   0.04288   0.99863   -0.03290   97.34497
1155   0.06051   0.04218   0.99872   -0.03253   0.06051   0.04218   0.99872   -0.03253   97.25952
1156   0.06044   0.04285   0.99872   -0.03400   0.06044   0.04285   0.99872   -0.03400   97.30225
1157   0.06041   0.04303   0.99863   -0.03421   0.06041   0.04303   0.99863   -0.03421   97.37549
1158   0.06043   0.04245   0.99869   -0.03302   0.06043   0.04245   0.99869   -0.03302   97.25647
1159   0.06047   0.04212   0.99866   -0.03293   0.06047   0.04212   0.99866   -0.03293   97.22900
1160   0.06035   0.04166   0.99869   -0.03391   0.06035   0.04166   0.99869   -0.03391   97.26868
1161   0.06032   0.04245   0.99875   -0.03397   0.06032   0.04245   0.99875   -0.03397   97.40295
1162   0.06040   0.04184   0.99866   -0.03427   0.06040   0.04184   0.99866   -0.03427   97.23816
1163   0.06048   0.04297   0.99863   -0.03412   0.06048   0.04297   0.99863   -0.03412   97.09167
1164   0.06039   0.04242   0.99872   -0.03446   0.06039   0.04242   0.99872   -0.03446   97.25342
1165   0.06037   0.04251   0.99872   -0.03494   0.06037   0.04251   0.99872   -0.03494   97.31445
1166   0.06045   0.04114   0.99875   -0.03339   0.06045   0.04114   0.99875   -0.03339   97.27173
1167   0.06049   0.04227   0.99869   -0.03394   0.06049   0.04227   0.99869   -0.03394   97.27478
1168   0.06040   0.04196   0.99863   -0.03497   0.06040   0.04196   0.99863   -0.03497   97.40601
1169   0.06040   0.04166   0.99872   -0.03388   0.06040   0.04166   0.99872   -0.03388   97.34497
1170   0.06047   0.04227   0.99875   -0.03436   0.06047   0.04227   0.99875   -0.03436   97.18323
1171   0.06046   0.04178   0.99872   -0.03406   0.06046   0.04178   0.99872   -0.03406   97.18018
1172   0.06034   0.04254   0.99863   -0.03415   0.06034   0.04254   0.99863   -0.03415   97.32666
1173   0.06036   0.04154   0.99869   -0.03583   0.06036   0.04154   0.99869   -0.03583   97.36023
1174   0.06043   0.04248   0.99875   -0.03342   0.06043   0.04248   0.99875   -0.03342   97.27173
1175   0.06044   0.04212   0.99863   -0.03323   0.06044   0.04212   0.99863   -0.03323   97.22595
1176   0.06036   0.04300   0.99875   -0.03452   0.06036   0.04300   0.99875   -0.03452   97.39075
1177   0.06043   0.04373   0.99866   -0.03375   0.06043   0.04373   0.99866   -0.03375   97.40906
1178   0.06052   0.04151   0.99878   -0.03327   0.06052   0.04151   0.99878   -0.03327   97.25952
1179   0.06051   0.04297   0.99875   -0.03421   0.06051   0.04297   0.99875   -0.03421   97.27478
1180   0.06039   0.04135   0.99875   -0.03430   0.06039   0.04135   0.99875   -0.03430   97.45178
1181   0.06044   0.04163   0.99875   -0.03366   0.06044   0.04163   0.99875   -0.03366   97.30225
1182   0.06047   0.04221   0.99866   -0.03363   0.06047   0.04221   0.99866   -0.03363   97.27173
1183   0.06038   0.04245   0.99872   -0.03394   0.06038   0.04245   0.99872   -0.03394   97.29919
1184   0.06035   0.04154   0.99863   -0.03470   0.06035   0.04154   0.99863   -0.03470   97.25342
1185   0.06038   0.04270   0.99866   -0.03372   0.06038   0.04270   0.99866   -0.03372   97.26868
1186   0.06037   0.04181   0.99878   -0.03226   0.06037   0.04181   0.99878   -0.03226   97.32971
1187   0.06042   0.04260   0.99869   -0.03433   0.06042   0.04260   0.99869   -0.03433   97.30225
1188   0.06035   0.04190   0.99866   -0.03244   0.06035   0.04190   0.99866   -0.03244   97.44873
1189   0.06045   0.04315   0.99866   -0.03369   0.06045   0.04315   0.99866   -0.03369   97.28699
1190   0.06046   0.04303   0.99875   -0.03452   0.06046   0.04303   0.99875   -0.03452   97.24121
1191   0.06046   0.04233   0.99875   -0.03464   0.06046   0.04233   0.99875   -0.03464   97.24121
1192   0.06044   0.04230   0.99872   -0.03433   0.06044   0.04230   0.99872   -0.03433   97.36328
1193   0.06048   0.04260   0.99866   -0.03372   0.06048   0.04260   0.99866   -0.03372   97.18323
1194   0.06039   0.04178   0.99863   -0.03470   0.06039   0.04178   0.99863   -0.03470   97.31445
1195   0.06034   0.04147   0.99863   -0.03461   0.06034   0.04147   0.99863   -0.03461   97.23816
1196   0.06030   0.04205   0.99863   -0.03378   0.06030   0.04205   0.99863   -0.03378   97.26563
1197   0.06024   0.04260   0.99875   -0.03357   0.06024   0.04260   0.99875   -0.03357   97.21680
1198   0.06037   0.04175   0.99866   -0.03378   0.06037   0.04175   0.99866   -0.03378   97.39075
1199   0.06039   0.04178   0.99875   -0.03409   0.06039   0.04178   0.99875   -0.03409   97.43652
1200   0.06041   0.04218   0.99872   -0.03366   0.06041   0.04218   0.99872   -0.03366   97.37549
1201   0.06040   0.04193   0.99863   -0.03314   0.06040   0.04193   0.99863   -0.03314   97.18018
1202   0.06043   0.04248   0.99875   -0.03363   0.06043   0.04248   0.99875   -0.03363   97.27173
1203   0.06043   0.04209   0.99866   -0.03467   0.06043   0.04209   0.99866   -0.03467   97.33276
1204   0.06050   0.04196   0.99875   -0.03385   0.06050   0.04196   0.99875   -0.03385   97.25952
1205   0.06046   0.04273   0.99866   -0.03391   0.06046   0.04273   0.99866   -0.03391   97.30225
1206   0.06040   0.04285   0.99866   -0.03433   0.06040   0.04285   0.99866   -0.03433   97.29919
1207   0.06031   0.04245   0.99872   -0.03467   0.06031   0.04245   0.99872   -0.03467   97.37244
1208   0.06038   0.04135   0.99887   -0.03299   0.06038   0.04135   0.99887   -0.03299   97.32971
1209   0.06044   0.04209   0.99866   -0.03397   0.06044   0.04209   0.99866   -0.03397   97.21069
1210   0.06041   0.04291   0.99869   -0.03442   0.06041   0.04291   0.99869   -0.03442   97.32971
1211   0.06041   0.04294   0.99872   -0.03473   0.06041   0.04294   0.99872   -0.03473   97.24121
1212   0.06052   0.04163   0.99869   -0.03375   0.06052   0.04163   0.99869   -0.03375   97.25952
1213   0.06056   0.04205   0.99863   -0.03363   0.06056   0.04205   0.99863   -0.03363   97.27783
1214   0.06053   0.04266   0.99872   -0.03439   0.06053   0.04266   0.99872   -0.03439   97.32056
1215   0.06042   0.04141   0.99875   -0.03421   0.06042   0.04141   0.99875   -0.03421   97.30225
1216   0.06056   0.04248   0.99863   -0.03330   0.06056   0.04248   0.99863   -0.03330   97.29309
1217   0.06051   0.04251   0.99875   -0.03403   0.06051   0.04251   0.99875   -0.03403   97.29004
1218   0.06041   0.04193   0.99869   -0.03446   0.06041   0.04193   0.99869   -0.03446   97.45178
1219   0.06037   0.04215   0.99872   -0.03323   0.06037   0.04215   0.99872   -0.03323   97.43652
1220   0.06051   0.04166   0.99866   -0.03327   0.06051   0.04166   0.99866   -0.03327   97.15271
1221   0.06046   0.04221   0.99872   -0.03385   0.06046   0.04221   0.99872   -0.03385   97.30225
1222   0.06043   0.04202   0.99869   -0.03406   0.06043   0.04202   0.99869   -0.03406   97.34802
1223   0.06043   0.04172   0.99875   -0.03418   0.06043   0.04172   0.99875   -0.03418   97.34802
1224   0.06054   0.04227   0.99866   -0.03421   0.06054   0.04227   0.99866   -0.03421   97.30530
1225   0.06049   0.04245   0.99872   -0.03372   0.06049   0.04245   0.99872   -0.03372   97.27478
1226   0.06046   0.04263   0.99863   -0.03464   0.06046   0.04263   0.99863   -0.03464   97.33276
1227   0.06049   0.04236   0.99872   -0.03394   0.06049   0.04236   0.99872   -0.03394   97.21375
1228   0.06054   0.04205   0.99878   -0.03455   0.06054   0.04205   0.99878   -0.03455   97.24731
1229   0.06047   0.04257   0.99875   -0.03320   0.06047   0.04257   0.99875   -0.03320   97.27478
1230   0.06036   0.04266   0.99863   -0.03455   0.06036   0.04266   0.99863   -0.03455   97.36023
1231   0.06043   0.04230   0.99863   -0.03323   0.06043   0.04230   0.99863   -0.03323   97.24121
1232   0.06046   0.04331   0.99869   -0.03256   0.06046   0.04331   0.99869   -0.03256   97.16492
1233   0.06044   0.04209   0.99869   -0.03366   0.06044   0.04209   0.99869   -0.03366   97.25647
1234   0.06042   0.04126   0.99866   -0.03461   0.06042   0.04126   0.99866   -0.03461   97.27173
1235   0.06054   0.04263   0.99866   -0.03320   0.06054   0.04263   0.99866   -0.03320   97.14050
1236   0.06049   0.04215   0.99866   -0.03403   0.06049   0.04215   0.99866   -0.03403   97.30530
1237   0.06047   0.04196   0.99863   -0.03406   0.06047   0.04196   0.99863   -0.03406   97.34802
1238   0.06047   0.04221   0.99872   -0.03403   0.06047   0.04221   0.99872   -0.03403   97.28699
1239   0.06049   0.04154   0.99872   -0.03345   0.06049   0.04154   0.99872   -0.03345   97.42432
1240   0.06049   0.04151   0.99875   -0.03397   0.06049   0.04151   0.99875   -0.03397   97.25952
1241   0.06045   0.04209   0.99863   -0.03394   0.06045   0.04209   0.99863   -0.03394   97.33276
1242   0.06043   0.04334   0.99866   -0.03439   0.06043   0.04334   0.99866   -0.03439   97.13440
1243   0.06047   0.04306   0.99875   -0.03513   0.06047   0.04306   0.99875   -0.03513   97.21375
1244   0.06041   0.04303   0.99875   -0.03400   0.06041   0.04303   0.99875   -0.03400   97.34497
1245   0.06042   0.04297   0.99866   -0.03381   0.06042   0.04297   0.99866   -0.03381   97.37549
1246   0.06042   0.04151   0.99875   -0.03327   0.06042   0.04151   0.99875   -0.03327   97.40601
1247   0.06048   0.04205   0.99863   -0.03333   0.06048   0.04205   0.99863   -0.03333   97.27478
1248   0.06046   0.04251   0.99866   -0.03464   0.06046   0.04251   0.99866   -0.03464   97.27173
1249   0.06046   0.04205   0.99875   -0.03415   0.06046   0.04205   0.99875   -0.03415   97.36328
1250   0.06050   0.04154   0.99869   -0.03488   0.06050   0.04154   0.99869   -0.03488   97.33582
1251   0.06053   0.04245   0.99866   -0.03342   0.06053   0.04245   0.99866   -0.03342   97.30530
1252   0.06045   0.04263   0.99869   -0.03504   0.06045   0.04263   0.99869   -0.03504   97.36328
1253   0.06039   0.04196   0.99869   -0.03345   0.06039   0.04196   0.99869   -0.03345   97.40601
1254   0.06039   0.04324   0.99875   -0.03278   0.06039   0.04324   0.99875   -0.03278   97.29919
1255   0.06046   0.04288   0.99863   -0.03430   0.06046   0.04288   0.99863   -0.03430   97.21069
1256   0.06039   0.04257   0.99869   -0.03424   0.06039   0.04257   0.99869   -0.03424   97.29919
1257   0.06041   0.04105   0.99872   -0.03412   0.06041   0.04105   0.99872   -0.03412   97.36023
1258   0.06049   0.04205   0.99869   -0.03424   0.06049   0.04205   0.99869   -0.03424   97.24426
1259   0.06047   0.04245   0.99875   -0.03372   0.06047   0.04245   0.99875   -0.03372   97.31750
1260   0.06040   0.04209   0.99875   -0.03476   0.06040   0.04209   0.99875   -0.03476   97.29919
1261   0.06047   0.04236   0.99863   -0.03311   0.06047   0.04236   0.99863   -0.03311   97.34802
1262   0.06049   0.04209   0.99875   -0.03314   0.06049   0.04209   0.99875   -0.03314   97.37854
1263   0.06046   0.04202   0.99869   -0.03406   0.06046   0.04202   0.99869   -0.03406   97.30225
1264   0.06040   0.04135   0.99875   -0.03452   0.06040   0.04135   0.99875   -0.03452   97.29919
1265   0.06046   0.04233   0.99878   -0.03302   0.06046   0.04233   0.99878   -0.03302   97.31750
1266   0.06045   0.04288   0.99875   -0.03391   0.06045   0.04288   0.99875   -0.03391   97.19543
1267   0.06038   0.04059   0.99878   -0.03345   0.06038   0.04059   0.99878   -0.03345   97.32971
1268   0.06037   0.04196   0.99875   -0.03458   0.06037   0.04196   0.99875   -0.03458   97.26868
1269   0.06046   0.04144   0.99863   -0.03427   0.06046   0.04144   0.99863   -0.03427   97.30225
1270   0.06050   0.04230   0.99872   -0.03363   0.06050   0.04230   0.99872   -0.03363   97.30530
1271   0.06041   0.04236   0.99872   -0.03394   0.06041   0.04236   0.99872   -0.03394   97.32971
1272   0.06042   0.04236   0.99863   -0.03363   0.06042   0.04236   0.99863   -0.03363   97.39075
1273   0.06050   0.04199   0.99875   -0.03284   0.06050   0.04199   0.99875   -0.03284   97.33582
1274   0.06053   0.04221   0.99866   -0.03485   0.06053   0.04221   0.99866   -0.03485   97.24426
1275   0.06047   0.04315   0.99869   -0.03522   0.06047   0.04315   0.99869   -0.03522   97.22900
1276   0.06039   0.04282   0.99878   -0.03473   0.06039   0.04282   0.99878   -0.03473   97.36023
1277   0.06036   0.04233   0.99869   -0.03406   0.06036   0.04233   0.99869   -0.03406   97.20764
1278   0.06033   0.04343   0.99866   -0.03412   0.06033   0.04343   0.99866   -0.03412   97.10083
1279   0.06035   0.04205   0.99875   -0.03510   0.06035   0.04205   0.99875   -0.03510   97.32971
1280   0.06042   0.04151   0.99869   -0.03409   0.06042   0.04151   0.99869   -0.03409   97.45178
1281   0.06052   0.04270   0.99863   -0.03330   0.06052   0.04270   0.99863   -0.03330   97.18323
1282   0.06046   0.04257   0.99869   -0.03464   0.06046   0.04257   0.99869   -0.03464   97.21069
1283   0.06042   0.04236   0.99878   -0.03525   0.06042   0.04236   0.99878   -0.03525   97.30225
1284   0.06048   0.04230   0.99878   -0.03333   0.06048   0.04230   0.99878   -0.03333   97.24426
1285   0.06053   0.04190   0.99866   -0.03272   0.06053   0.04190   0.99866   -0.03272   97.29004
1286   0.06051   0.04163   0.99866   -0.03458   0.06051   0.04163   0.99866   -0.03458   97.33582
1287   0.06043   0.04273   0.99872   -0.03381   0.06043   0.04273   0.99872   -0.03381   97.39380
1288   0.06044   0.04196   0.99872   -0.03345   0.06044   0.04196   0.99872   -0.03345   97.34802
1289   0.06045   0.04288   0.99875   -0.03391   0.06045   0.04288   0.99875   -0.03391   97.19543
1290   0.06044   0.04376   0.99872   -0.03375   0.06044   0.04376   0.99872   -0.03375   97.19543
1291   0.06037   0.04276   0.99872   -0.03403   0.06037   0.04276   0.99872   -0.03403   97.32971
1292   0.06046   0.04242   0.99872   -0.03262   0.06046   0.04242   0.99872   -0.03262   97.22595
1293   0.06047   0.04212   0.99866   -0.03345   0.06047   0.04212   0.99866   -0.03345   97.19849
1294   0.06045   0.04245   0.99863   -0.03485   0.06045   0.04245   0.99863   -0.03485   97.34802
1295   0.06044   0.04199   0.99869   -0.03436   0.06044   0.04199   0.99869   -0.03436   97.30225
1296   0.06057   0.04266   0.99875   -0.03461   0.06057   0.04266   0.99875   -0.03461   97.26257
1297   0.06057   0.04166   0.99863   -0.03546   0.06057   0.04166   0.99863   -0.03546   97.33887
1298   0.06046   0.04199   0.99866   -0.03436   0.06046   0.04199   0.99866   -0.03436   97.25647
1299   0.06040   0.04215   0.99866   -0.03406   0.06040   0.04215   0.99866   -0.03406   97.29919
1300   0.06049   0.04254   0.99863   -0.03464   0.06049   0.04254   0.99863   -0.03464   97.19849
1301   0.06046   0.04282   0.99875   -0.03381   0.06046   0.04282   0.99875   -0.03381   97.28699
1302   0.06047   0.04257   0.99863   -0.03433   0.06047   0.04257   0.99863   -0.03433   97.42432
1303   0.06047   0.04184   0.99863   -0.03406   0.06047   0.04184   0.99863   -0.03406   97.27173
1304   0.06044   0.04239   0.99872   -0.03433   0.06044   0.04239   0.99872   -0.03433   97.28699
1305   0.06044   0.04233   0.99863   -0.03433   0.06044   0.04233   0.99863   -0.03433   97.33276
1306   0.06047   0.04144   0.99863   -0.03427   0.06047   0.04144   0.99863   -0.03427   97.43958
1307   0.06048   0.04196   0.99869   -0.03375   0.06048   0.04196   0.99869   -0.03375   97.37854
1308   0.06051   0.04279   0.99863   -0.03430   0.06051   0.04279   0.99863   -0.03430   97.19849
1309   0.06046   0.04285   0.99863   -0.03461   0.06046   0.04285   0.99863   -0.03461   97.31750
1310   0.06047   0.04279   0.99875   -0.03461   0.06047   0.04279   0.99875   -0.03461   97.33276
1311   0.06051   0.04202   0.99869   -0.03354   0.06051   0.04202   0.99869   -0.03354   97.25952
1312   0.06048   0.04291   0.99872   -0.03430   0.06048   0.04291   0.99872   -0.03430   97.27478
1313   0.06045   0.04266   0.99866   -0.03543   0.06045   0.04266   0.99866   -0.03543   97.34802
1314   0.06044   0.04230   0.99872   -0.03415   0.06044   0.04230   0.99872   -0.03415   97.36328
1315   0.06028   0.04138   0.99893   -0.03302   0.06028   0.04138   0.99893   -0.03302   97.28088
1316   0.06042   0.04181   0.99872   -0.03500   0.06042   0.04181   0.99872   -0.03500   97.19543
1317   0.06045   0.04285   0.99866   -0.03391   0.06045   0.04285   0.99866   -0.03391   97.37854
1318   0.06045   0.04279   0.99866   -0.03400   0.06045   0.04279   0.99866   -0.03400   97.34802
1319   0.06047   0.04187   0.99875   -0.03406   0.06047   0.04187   0.99875   -0.03406   97.09167
1320   0.06047   0.04300   0.99866   -0.03400   0.06047   0.04300   0.99866   -0.03400   97.30225
1321   0.06042   0.04276   0.99863   -0.03504   0.06042   0.04276   0.99863   -0.03504   97.45178
1322   0.06046   0.04199   0.99863   -0.03375   0.06046   0.04199   0.99863   -0.03375   97.39380
1323   0.06046   0.04147   0.99866   -0.03348   0.06046   0.04147   0.99866   -0.03348   97.24121
1324   0.06036   0.04251   0.99866   -0.03415   0.06036   0.04251   0.99866   -0.03415   97.29919
1325   0.06033   0.04181   0.99863   -0.03439   0.06033   0.04181   0.99863   -0.03439   97.44873
1326   0.06046   0.04288   0.99866   -0.03400   0.06046   0.04288   0.99866   -0.03400   97.25647
1327   0.06047   0.04279   0.99863   -0.03473   0.06047   0.04279   0.99863   -0.03473   97.25952
1328   0.06040   0.04245   0.99866   -0.03455   0.06040   0.04245   0.99866   -0.03455   97.31445
1329   0.06042   0.04251   0.99866   -0.03504   0.06042   0.04251   0.99866   -0.03504   97.33276
1330   0.06051   0.04260   0.99866   -0.03369   0.06051   0.04260   0.99866   -0.03369   97.29004
1331   0.06052   0.04334   0.99875   -0.03500   0.06052   0.04334   0.99875   -0.03500   97.16797
1332   0.06042   0.04169   0.99866   -0.03366   0.06042   0.04169   0.99866   -0.03366   97.28699
1333   0.06046   0.04190   0.99872   -0.03476   0.06046   0.04190   0.99872   -0.03476   97.36328
1334   0.06052   0.04321   0.99875   -0.03409   0.06052   0.04321   0.99875   -0.03409   97.14050
1335   0.06047   0.04187   0.99863   -0.03427   0.06047   0.04187   0.99863   -0.03427   97.25952
1336   0.06035   0.04288   0.99866   -0.03351   0.06035   0.04288   0.99866   -0.03351   97.29919
1337   0.06040   0.04239   0.99869   -0.03507   0.06040   0.04239   0.99869   -0.03507   97.29919
1338   0.06046   0.04266   0.99869   -0.03403   0.06046   0.04266   0.99869   -0.03403   97.27173
1339   0.06047   0.04279   0.99875   -0.03522   0.06047   0.04279   0.99875   -0.03522   97.19849
1340   0.06039   0.04196   0.99875   -0.03388   0.06039   0.04196   0.99875   -0.03388   97.42126
1341   0.06046   0.04257   0.99863   -0.03403   0.06046   0.04257   0.99863   -0.03403   97.33276
1342   0.06050   0.04321   0.99866   -0.03418   0.06050   0.04321   0.99866   -0.03418   97.24426
1343   0.06047   0.04218   0.99866   -0.03424   0.06047   0.04218   0.99866   -0.03424   97.33276
1344   0.06046   0.04205   0.99872   -0.03507   0.06046   0.04205   0.99872   -0.03507   97.31750
1345   0.06051   0.04254   0.99866   -0.03290   0.06051   0.04254   0.99866   -0.03290   97.29004
1346   0.06046   0.04157   0.99866   -0.03348   0.06046   0.04157   0.99866   -0.03348   97.31750
1347   0.06044   0.04242   0.99875   -0.03494   0.06044   0.04242   0.99875   -0.03494   97.30225
1348   0.06037   0.04273   0.99875   -0.03372   0.06037   0.04273   0.99875   -0.03372   97.23816
1349   0.06047   0.04270   0.99869   -0.03442   0.06047   0.04270   0.99869   -0.03442   97.24426
1350   0.06039   0.04129   0.99869   -0.03430   0.06039   0.04129   0.99869   -0.03430   97.36023
1351   0.06040   0.04172   0.99875   -0.03439   0.06040   0.04172   0.99875   -0.03439   97.39075
1352   0.06043   0.04193   0.99875   -0.03366   0.06043   0.04193   0.99875   -0.03366   97.37854
1353   0.06049   0.04178   0.99869   -0.03345   0.06049   0.04178   0.99869   -0.03345   97.25952
1354   0.06042   0.04123   0.99872   -0.03513   0.06042   0.04123   0.99872   -0.03513   97.40601
1355   0.06045   0.04266   0.99875   -0.03552   0.06045   0.04266   0.99875   -0.03552   97.42432
1356   0.06051   0.04282   0.99875   -0.03470   0.06051   0.04282   0.99875   -0.03470   97.32056
1357   0.06051   0.04141   0.99875   -0.03397   0.06051   0.04141   0.99875   -0.03397   97.30530
1358   0.06046   0.04209   0.99869   -0.03507   0.06046   0.04209   0.99869   -0.03507   97.30225
1359   0.06037   0.04337   0.99869   -0.03449   0.06037   0.04337   0.99869   -0.03449   97.40601
1360   0.06044   0.04239   0.99875   -0.03455   0.06044   0.04239   0.99875   -0.03455   97.30225
1361   0.06046   0.04178   0.99869   -0.03510   0.06046   0.04178   0.99869   -0.03510   97.24121
1362   0.06039   0.04169   0.99872   -0.03427   0.06039   0.04169   0.99872   -0.03427   97.36023
1363   0.06040   0.04138   0.99869   -0.03500   0.06040   0.04138   0.99869   -0.03500   97.37549
1364   0.06052   0.04163   0.99875   -0.03418   0.06052   0.04163   0.99875   -0.03418   97.14050
1365   0.06049   0.04282   0.99869   -0.03482   0.06049   0.04282   0.99869   -0.03482   97.29004
1366   0.06041   0.04196   0.99863   -0.03497   0.06041   0.04196   0.99863   -0.03497   97.39075
1367   0.06045   0.04147   0.99872   -0.03357   0.06045   0.04147   0.99872   -0.03357   97.31750
1368   0.06056   0.04227   0.99866   -0.03330   0.06056   0.04227   0.99866   -0.03330   97.30835
1369   0.06049   0.04251   0.99872   -0.03525   0.06049   0.04251   0.99872   -0.03525   97.24426
1370   0.06038   0.04266   0.99866   -0.03381   0.06038   0.04266   0.99866   -0.03381   97.37549
1371   0.06040   0.04178   0.99866   -0.03397   0.06040   0.04178   0.99866   -0.03397   97.34497
1372   0.06044   0.04199   0.99872   -0.03385   0.06044   0.04199   0.99872   -0.03385   97.34802
1373   0.06041   0.04233   0.99875   -0.03394   0.06041   0.04233   0.99875   -0.03394   97.34497
1374   0.06035   0.04291   0.99875   -0.03452   0.06035   0.04291   0.99875   -0.03452   97.47925
1375   0.06043   0.04175   0.99869   -0.03345   0.06043   0.04175   0.99869   -0.03345   97.36328
1376   0.06051   0.04282   0.99878   -0.03400   0.06051   0.04282   0.99878   -0.03400   97.21375
1377   0.06048   0.04294   0.99872   -0.03452   0.06048   0.04294   0.99872   -0.03452   97.27478
1378   0.06050   0.04212   0.99869   -0.03546   0.06050   0.04212   0.99869   -0.03546   97.38159
1379   0.06056   0.04215   0.99872   -0.03494   0.06056   0.04215   0.99872   -0.03494   97.33887
1380   0.06050   0.04300   0.99863   -0.03378   0.06050   0.04300   0.99863   -0.03378   97.24426
1381   0.06041   0.04212   0.99875   -0.03375   0.06041   0.04212   0.99875   -0.03375   97.36023
1382   0.06039   0.04218   0.99869   -0.03415   0.06039   0.04218   0.99869   -0.03415   97.36023
1383   0.06040   0.04245   0.99875   -0.03433   0.06040   0.04245   0.99875   -0.03433   97.28394
1384   0.06045   0.04190   0.99872   -0.03427   0.06045   0.04190   0.99872   -0.03427   97.11914
1385   0.06037   0.04205   0.99872   -0.03510   0.06037   0.04205   0.99872   -0.03510   97.29919
1386   0.06040   0.04306   0.99875   -0.03534   0.06040   0.04306   0.99875   -0.03534   97.32971
1387   0.06045   0.04169   0.99875   -0.03378   0.06045   0.04169   0.99875   -0.03378   97.31750
1388   0.06046   0.04163   0.99875   -0.03366   0.06046   0.04163   0.99875   -0.03366   97.27173
1389   0.06039   0.04257   0.99866   -0.03403   0.06039   0.04257   0.99866   -0.03403   97.43652
1390   0.06046   0.04157   0.99869   -0.03488   0.06046   0.04157   0.99869   -0.03488   97.39380
1391   0.06049   0.04233   0.99872   -0.03354   0.06049   0.04233   0.99872   -0.03354   97.21375
1392   0.06050   0.04233   0.99863   -0.03464   0.06050   0.04233   0.99863   -0.03464   97.19849
1393   0.06044   0.04224   0.99872   -0.03537   0.06044   0.04224   0.99872   -0.03537   97.30225
1394   0.06043   0.04178   0.99866   -0.03366   0.06043   0.04178   0.99866   -0.03366   97.34802
1395   0.06040   0.04239   0.99875   -0.03455   0.06040   0.04239   0.99875   -0.03455   97.21069
1396   0.06032   0.04300   0.99866   -0.03565   0.06032   0.04300   0.99866   -0.03565   97.31140
1397   0.06022   0.04270   0.99872   -0.03507   0.06022   0.04270   0.99872   -0.03507   97.35413
1398   0.06047   0.04184   0.99863   -0.03406   0.06047   0.04184   0.99863   -0.03406   97.27173
1399   0.06048   0.04151   0.99872   -0.03378   0.06048   0.04151   0.99872   -0.03378   97.25952
1400   0.06042   0.04251   0.99875   -0.03494   0.06042   0.04251   0.99875   -0.03494   97.25647
1401   0.06040   0.04178   0.99863   -0.03449   0.06040   0.04178   0.99863   -0.03449   97.29919
1402   0.06051   0.04172   0.99866   -0.03458   0.06051   0.04172   0.99866   -0.03458   97.25952
1403   0.06044   0.04114   0.99872   -0.03461   0.06044   0.04114   0.99872   -0.03461   97.34802
1404   0.06042   0.04233   0.99863   -0.03485   0.06042   0.04233   0.99863   -0.03485   97.46704
1405   0.06044   0.04187   0.99875   -0.03388   0.06044   0.04187   0.99875   -0.03388   97.28699
1406   0.06040   0.04129   0.99869   -0.03308   0.06040   0.04129   0.99869   -0.03308   97.26868
1407   0.06035   0.04218   0.99869   -0.03418   0.06035   0.04218   0.99869   -0.03418   97.28394
1408   0.06040   0.04199   0.99875   -0.03467   0.06040   0.04199   0.99875   -0.03467   97.26868
1409   0.06044   0.04144   0.99863   -0.03308   0.06044   0.04144   0.99863   -0.03308   97.25647
1410   0.06046   0.04147   0.99866   -0.03439   0.06046   0.04147   0.99866   -0.03439   97.21069
1411   0.06042   0.04199   0.99872   -0.03458   0.06042   0.04199   0.99872   -0.03458   97.33276
1412   0.06045   0.04260   0.99872   -0.03504   0.06045   0.04260   0.99872   -0.03504   97.37854
1413   0.06058   0.04175   0.99869   -0.03446   0.06058   0.04175   0.99869   -0.03446   97.33887
1414   0.06056   0.04199   0.99866   -0.03516   0.06056   0.04199   0.99866   -0.03516   97.32361
1415   0.06047   0.04230   0.99866   -0.03485   0.06047   0.04230   0.99866   -0.03485   97.27173
1416   0.06048   0.04227   0.99872   -0.03534   0.06048   0.04227   0.99872   -0.03534   97.37854
1417   0.06056   0.04230   0.99878   -0.03452   0.06056   0.04230   0.99878   -0.03452   97.33887
1418   0.06050   0.04270   0.99875   -0.03522   0.06050   0.04270   0.99875   -0.03522   97.22900
1419   0.06037   0.04227   0.99872   -0.03537   0.06037   0.04227   0.99872   -0.03537   97.39075
1420   0.06042   0.04224   0.99869   -0.03476   0.06042   0.04224   0.99869   -0.03476   97.31750
1421   0.06053   0.04215   0.99869   -0.03494   0.06053   0.04215   0.99869   -0.03494   97.22900
1422   0.06047   0.04163   0.99869   -0.03449   0.06047   0.04163   0.99869   -0.03449   97.30225
1423   0.06044   0.04160   0.99875   -0.03592   0.06044   0.04160   0.99875   -0.03592   97.30225
1424   0.06047   0.04190   0.99875   -0.03375   0.06047   0.04190   0.99875   -0.03375   97.27478
1425   0.06056   0.04166   0.99869   -0.03415   0.06056   0.04166   0.99869   -0.03415   97.20154
1426   0.06051   0.04315   0.99854   -0.03641   0.06051   0.04315   0.99854   -0.03641   97.25952
1427   0.06044   0.04260   0.99866   -0.03534   0.06044   0.04260   0.99866   -0.03534   97.48230
1428   0.06051   0.04236   0.99863   -0.03433   0.06051   0.04236   0.99863   -0.03433   97.36633
1429   0.06048   0.04202   0.99866   -0.03314   0.06048   0.04202   0.99866   -0.03314   97.29004
1430   0.06038   0.04328   0.99857   -0.03562   0.06038   0.04328   0.99857   -0.03562   97.31445
1431   0.06041   0.04300   0.99860   -0.03592   0.06041   0.04300   0.99860   -0.03592   97.40601
1432   0.06046   0.04193   0.99866   -0.03476   0.06046   0.04193   0.99866   -0.03476   97.33276
1433   0.06049   0.04205   0.99863   -0.03476   0.06049   0.04205   0.99863   -0.03476   97.33582
1434   0.06041   0.04196   0.99863   -0.03497   0.06041   0.04196   0.99863   -0.03497   97.39075
1435   0.06043   0.04193   0.99878   -0.03488   0.06043   0.04193   0.99878   -0.03488   97.45178
1436   0.06051   0.04218   0.99866   -0.03442   0.06051   0.04218   0.99866   -0.03442   97.27478
1437   0.06051   0.04309   0.99866   -0.03357   0.06051   0.04309   0.99866   -0.03357   97.30530
1438   0.06044   0.04294   0.99863   -0.03531   0.06044   0.04294   0.99863   -0.03531   97.37854
1439   0.06047   0.04239   0.99863   -0.03473   0.06047   0.04239   0.99863   -0.03473   97.43958
1440   0.06054   0.04291   0.99863   -0.03400   0.06054   0.04291   0.99863   -0.03400   97.25952
1441   0.06047   0.04209   0.99869   -0.03485   0.06047   0.04209   0.99869   -0.03485   97.28699
1442   0.06035   0.04279   0.99866   -0.03424   0.06035   0.04279   0.99866   -0.03424   97.34497
1443   0.06046   0.04224   0.99875   -0.03446   0.06046   0.04224   0.99875   -0.03446   97.31750
1444   0.06049   0.04254   0.99863   -0.03464   0.06049   0.04254   0.99863   -0.03464   97.19849
1445   0.06049   0.04227   0.99866   -0.03446   0.06049   0.04227   0.99866   -0.03446   97.22900
1446   0.06043   0.04245   0.99866   -0.03455   0.06043   0.04245   0.99866   -0.03455   97.42126
1447   0.06046   0.04157   0.99863   -0.03357   0.06046   0.04157   0.99863   -0.03357   97.40906
1448   0.06047   0.04227   0.99866   -0.03473   0.06047   0.04227   0.99866   -0.03473   97.36328
1449   0.06047   0.04324   0.99875   -0.03449   0.06047   0.04324   0.99875   -0.03449   97.34802
1450   0.06043   0.04276   0.99863   -0.03461   0.06043   0.04276   0.99863   -0.03461   97.43652
1451   0.06053   0.04224   0.99872   -0.03424   0.06053   0.04224   0.99872   -0.03424   97.33582
1452   0.06047   0.04263   0.99872   -0.03494   0.06047   0.04263   0.99872   -0.03494   97.22900
1453   0.06039   0.04218   0.99863   -0.03589   0.06039   0.04218   0.99863   -0.03589   97.37549
1454   0.06037   0.04221   0.99869   -0.03476   0.06037   0.04221   0.99869   -0.03476   97.39075
1455   0.06045   0.04196   0.99875   -0.03436   0.06045   0.04196   0.99875   -0.03436   97.30225
1456   0.06045   0.04263   0.99866   -0.03433   0.06045   0.04263   0.99866   -0.03433   97.24121
1457   0.06037   0.04181   0.99872   -0.03519   0.06037   0.04181   0.99872   -0.03519   97.42126
1458   0.06044   0.04190   0.99866   -0.03436   0.06044   0.04190   0.99866   -0.03436   97.36328
1459   0.06049   0.04230   0.99872   -0.03433   0.06049   0.04230   0.99872   -0.03433   97.29004
1460   0.06045   0.04160   0.99869   -0.03497   0.06045   0.04160   0.99869   -0.03497   97.30225
1461   0.06038   0.04254   0.99878   -0.03464   0.06038   0.04254   0.99878   -0.03464   97.49756
1462   0.06050   0.04337   0.99869   -0.03497   0.06050   0.04337   0.99869   -0.03497   97.32056
1463   0.06053   0.04236   0.99872   -0.03424   0.06053   0.04236   0.99872   -0.03424   97.25952
1464   0.06042   0.04212   0.99875   -0.03427   0.06042   0.04212   0.99875   -0.03427   97.30225
1465   0.06035   0.04117   0.99872   -0.03543   0.06035   0.04117   0.99872   -0.03543   97.32971
1466   0.06046   0.04205   0.99866   -0.03424   0.06046   0.04205   0.99866   -0.03424   97.28699
1467   0.06044   0.04266   0.99869   -0.03403   0.06044   0.04266   0.99869   -0.03403   97.30225
1468   0.06041   0.04263   0.99875   -0.03586   0.06041   0.04263   0.99875   -0.03586   97.29919
1469   0.06038   0.04273   0.99878   -0.03513   0.06038   0.04273   0.99878   -0.03513   97.45178
1470   0.06051   0.04227   0.99869   -0.03442   0.06051   0.04227   0.99869   -0.03442   97.21375
1471   0.06049   0.04248   0.99863   -0.03473   0.06049   0.04248   0.99863   -0.03473   97.32056
1472   0.06042   0.04196   0.99866   -0.03427   0.06042   0.04196   0.99866   -0.03427   97.42126
1473   0.06047   0.04251   0.99866   -0.03464   0.06047   0.04251   0.99866   -0.03464   97.25647
1474   0.06054   0.04279   0.99869   -0.03400   0.06054   0.04279   0.99869   -0.03400   97.21680
1475   0.06047   0.04236   0.99869   -0.03442   0.06047   0.04236   0.99869   -0.03442   97.33276
1476   0.06036   0.04215   0.99863   -0.03436   0.06036   0.04215   0.99863   -0.03436   97.45178
1477   0.06030   0.04276   0.99875   -0.03323   0.06030   0.04276   0.99875   -0.03323   97.23511
1478   0.06033   0.04215   0.99872   -0.03418   0.06033   0.04215   0.99872   -0.03418   97.17407
1479   0.06045   0.04312   0.99866   -0.03531   0.06045   0.04312   0.99866   -0.03531   97.22595
1480   0.06044   0.04181   0.99863   -0.03580   0.06044   0.04181   0.99863   -0.03580   97.36328
1481   0.06045   0.04199   0.99878   -0.03446   0.06045   0.04199   0.99878   -0.03446   97.34802
1482   0.06047   0.04205   0.99863   -0.03406   0.06047   0.04205   0.99863   -0.03406   97.25952
1483   0.06044   0.04273   0.99869   -0.03482   0.06044   0.04273   0.99869   -0.03482   97.30225
1484   0.06044   0.04224   0.99869   -0.03476   0.06044   0.04224   0.99869   -0.03476   97.43958
1485   0.06052   0.04263   0.99872   -0.03452   0.06052   0.04263   0.99872   -0.03452   97.30530
1486   0.06054   0.04132   0.99872   -0.03449   0.06054   0.04132   0.99872   -0.03449   97.29004
1487   0.06043   0.04288   0.99872   -0.03442   0.06043   0.04288   0.99872   -0.03442   97.31750
1488   0.06037   0.04236   0.99875   -0.03436   0.06037   0.04236   0.99875   -0.03436   97.40601
1489   0.06044   0.04312   0.99863   -0.03513   0.06044   0.04312   0.99863   -0.03513   97.22595
1490   0.06047   0.04312   0.99872   -0.03500   0.06047   0.04312   0.99872   -0.03500   97.24426
1491   0.06039   0.04254   0.99869   -0.03403   0.06039   0.04254   0.99869   -0.03403   97.29919
1492   0.06039   0.04193   0.99875   -0.03418   0.06039   0.04193   0.99875   -0.03418   97.39075
1493   0.06048   0.04288   0.99875   -0.03534   0.06048   0.04288   0.99875   -0.03534   97.21375
1494   0.06046   0.04215   0.99872   -0.03516   0.06046   0.04215   0.99872   -0.03516   97.34802
1495   0.06044   0.04300   0.99860   -0.03552   0.06044   0.04300   0.99860   -0.03552   97.36328
1496   0.06050   0.04196   0.99875   -0.03525   0.06050   0.04196   0.99875   -0.03525   97.33582
1497   0.06059   0.04209   0.99863   -0.03494   0.06059   0.04209   0.99863   -0.03494   97.32361
1498   0.06048   0.04221   0.99863   -0.03534   0.06048   0.04221   0.99863   -0.03534   97.27478
1499   0.06033   0.04291   0.99872   -0.03412   0.06033   0.04291   0.99872   -0.03412   97.35718
1500   0.06041   0.04227   0.99872   -0.03415   0.06041   0.04227   0.99872   -0.03415   97.27173
1501   0.06047   0.04221   0.99866   -0.03363   0.06047   0.04221   0.99866   -0.03363   97.27173
1502   0.06047   0.04196   0.99872   -0.03415   0.06047   0.04196   0.99872   -0.03415   97.25952
1503   0.06041   0.04270   0.99872   -0.03485   0.06041   0.04270   0.99872   -0.03485   97.36023
1504   0.06048   0.04242   0.99869   -0.03433   0.06048   0.04242   0.99869   -0.03433   97.21375
1505   0.06047   0.04251   0.99875   -0.03381   0.06047   0.04251   0.99875   -0.03381   97.34802
1506   0.06046   0.04300   0.99869   -0.03439   0.06046   0.04300   0.99869   -0.03439   97.33276
1507   0.06047   0.04297   0.99863   -0.03391   0.06047   0.04297   0.99863   -0.03391   97.24426
1508   0.06052   0.04263   0.99869   -0.03360   0.06052   0.04263   0.99869   -0.03360   97.18323
1509   0.06049   0.04273   0.99863   -0.03442   0.06049   0.04273   0.99863   -0.03442   97.19849
1510   0.06041   0.04166   0.99872   -0.03458   0.06041   0.04166   0.99872   -0.03458   97.43652
1511   0.06047   0.04202   0.99869   -0.03424   0.06047   0.04202   0.99869   -0.03424   97.28699
1512   0.06047   0.04199   0.99863   -0.03323   0.06047   0.04199   0.99863   -0.03323   97.25952
1513   0.06051   0.04248   0.99875   -0.03433   0.06051   0.04248   0.99875   -0.03433   97.25952
1514   0.06032   0.04212   0.99863   -0.03436   0.06032   0.04212   0.99863   -0.03436   97.37244
1515   0.06029   0.04126   0.99872   -0.03363   0.06029   0.04126   0.99872   -0.03363   97.26563
1516   0.06048   0.04187   0.99875   -0.03476   0.06048   0.04187   0.99875   -0.03476   97.33276
1517   0.06045   0.04178   0.99863   -0.03446   0.06045   0.04178   0.99863   -0.03446   97.37854
1518   0.06033   0.04230   0.99872   -0.03336   0.06033   0.04230   0.99872   -0.03336   97.46399
1519   0.06045   0.04266   0.99872   -0.03372   0.06045   0.04266   0.99872   -0.03372   97.19543
1520   0.06049   0.04257   0.99875   -0.03464   0.06049   0.04257   0.99875   -0.03464   97.32056
1521   0.06043   0.04187   0.99863   -0.03497   0.06043   0.04187   0.99863   -0.03497   97.43652
1522   0.06035   0.04199   0.99863   -0.03418   0.06035   0.04199   0.99863   -0.03418   97.40295
1523   0.06044   0.04199   0.99875   -0.03446   0.06044   0.04199   0.99875   -0.03446   97.21069
1524   0.06040   0.04300   0.99866   -0.03421   0.06040   0.04300   0.99866   -0.03421   97.25342
1525   0.06037   0.04199   0.99875   -0.03497   0.06037   0.04199   0.99875   -0.03497   97.42126
1526   0.06033   0.04114   0.99863   -0.03381   0.06033   0.04114   0.99863   -0.03381   97.47925
1527   0.06047   0.04221   0.99869   -0.03385   0.06047   0.04221   0.99869   -0.03385   97.12219
1528   0.06047   0.04251   0.99866   -0.03464   0.06047   0.04251   0.99866   -0.03464   97.25647
1529   0.06040   0.04334   0.99875   -0.03470   0.06040   0.04334   0.99875   -0.03470   97.39075
1530   0.06042   0.04221   0.99866   -0.03436   0.06042   0.04221   0.99866   -0.03436   97.30225
1531   0.06053   0.04263   0.99869   -0.03412   0.06053   0.04263   0.99869   -0.03412   97.27478
1532   0.06045   0.04419   0.99857   -0.03424   0.06045   0.04419   0.99857   -0.03424   97.28699
1533   0.06041   0.04312   0.99872   -0.03409   0.06041   0.04312   0.99872   -0.03409   97.37549
1534   0.06041   0.04190   0.99863   -0.03397   0.06041   0.04190   0.99863   -0.03397   97.39075
1535   0.06048   0.04263   0.99869   -0.03452   0.06048   0.04263   0.99869   -0.03452   97.19849
1536   0.06037   0.04392   0.99850   -0.03467   0.06037   0.04392   0.99850   -0.03467   97.31445
1537   0.06039   0.04236   0.99878   -0.03507   0.06039   0.04236   0.99878   -0.03507   97.34497
1538   0.06040   0.04163   0.99869   -0.03378   0.06040   0.04163   0.99869   -0.03378   97.43652
1539   0.06047   0.04251   0.99863   -0.03424   0.06047   0.04251   0.99863   -0.03424   97.24121
1540   0.06042   0.04190   0.99872   -0.03519   0.06042   0.04190   0.99872   -0.03519   97.27173
1541   0.06040   0.04370   0.99872   -0.03418   0.06040   0.04370   0.99872   -0.03418   97.46704
1542   0.06047   0.04239   0.99866   -0.03442   0.06047   0.04239   0.99866   -0.03442   97.33276
1543   0.06047   0.04236   0.99875   -0.03412   0.06047   0.04236   0.99875   -0.03412   97.40906
1544   0.06044   0.04266   0.99875   -0.03391   0.06044   0.04266   0.99875   -0.03391   97.36328
1545   0.06043   0.04221   0.99863   -0.03375   0.06043   0.04221   0.99863   -0.03375   97.42126
1546   0.06047   0.04282   0.99869   -0.03461   0.06047   0.04282   0.99869   -0.03461   97.31750
1547   0.06041   0.04266   0.99866   -0.03473   0.06041   0.04266   0.99866   -0.03473   97.29919
1548   0.06037   0.04224   0.99863   -0.03436   0.06037   0.04224   0.99863   -0.03436   97.36023
1549   0.06039   0.04221   0.99863   -0.03375   0.06039   0.04221   0.99863   -0.03375   97.32971
1550   0.06044   0.04193   0.99875   -0.03345   0.06044   0.04193   0.99875   -0.03345   97.21069
1551   0.06042   0.04178   0.99863   -0.03418   0.06042   0.04178   0.99863   -0.03418   97.31750
1552   0.06042   0.04288   0.99866   -0.03473   0.06042   0.04288   0.99866   -0.03473   97.27173
1553   0.06047   0.04297   0.99863   -0.03409   0.06047   0.04297   0.99863   -0.03409   97.24426
1554   0.06049   0.04205   0.99866   -0.03354   0.06049   0.04205   0.99866   -0.03354   97.27478
1555   0.06044   0.04190   0.99869   -0.03476   0.06044   0.04190   0.99869   -0.03476   97.37854
1556   0.06044   0.04236   0.99863   -0.03385   0.06044   0.04236   0.99863   -0.03385   97.36328
1557   0.06048   0.04154   0.99872   -0.03418   0.06048   0.04154   0.99872   -0.03418   97.25952
1558   0.06046   0.04288   0.99872   -0.03421   0.06046   0.04288   0.99872   -0.03421   97.27173
1559   0.06034   0.04169   0.99869   -0.03479   0.06034   0.04169   0.99869   -0.03479   97.38770
1560   0.06038   0.04132   0.99866   -0.03470   0.06038   0.04132   0.99866   -0.03470   97.36023
1561   0.06047   0.04239   0.99869   -0.03433   0.06047   0.04239   0.99869   -0.03433   97.22900
1562   0.06047   0.04361   0.99847   -0.03589   0.06047   0.04361   0.99847   -0.03589   97.16797
1563   0.06036   0.04297   0.99869   -0.03473   0.06036   0.04297   0.99869   -0.03473   97.43652
1564   0.06046   0.04276   0.99860   -0.03604   0.06046   0.04276   0.99860   -0.03604   97.31750
1565   0.06050   0.04239   0.99869   -0.03442   0.06050   0.04239   0.99869   -0.03442   97.29004
1566   0.06048   0.04199   0.99875   -0.03568   0.06048   0.04199   0.99875   -0.03568   97.36328
1567   0.06041   0.04233   0.99866   -0.03616   0.06041   0.04233   0.99866   -0.03616   97.31445
1568   0.06049   0.04346   0.99863   -0.03366   0.06049   0.04346   0.99863   -0.03366   97.27478
1569   0.06051   0.04187   0.99872   -0.03415   0.06051   0.04187   0.99872   -0.03415   97.27478
1570   0.06039   0.04212   0.99872   -0.03497   0.06039   0.04212   0.99872   -0.03497   97.45178
1571   0.06029   0.04233   0.99863   -0.03598   0.06029   0.04233   0.99863   -0.03598   97.34192
1572   0.06044   0.04160   0.99875   -0.03488   0.06044   0.04160   0.99875   -0.03488   97.22595
1573   0.06046   0.04282   0.99869   -0.03412   0.06046   0.04282   0.99869   -0.03412   97.22595
1574   0.06041   0.04215   0.99866   -0.03568   0.06041   0.04215   0.99866   -0.03568   97.36023
1575   0.06036   0.04212   0.99869   -0.03476   0.06036   0.04212   0.99869   -0.03476   97.47925
1576   0.06051   0.04224   0.99875   -0.03415   0.06051   0.04224   0.99875   -0.03415   97.27478
1577   0.06051   0.04184   0.99863   -0.03476   0.06051   0.04184   0.99863   -0.03476   97.32056
1578   0.06050   0.04132   0.99866   -0.03479   0.06050   0.04132   0.99866   -0.03479   97.43958
1579   0.06045   0.04254   0.99872   -0.03424   0.06045   0.04254   0.99872   -0.03424   97.37854
1580   0.06050   0.04236   0.99869   -0.03424   0.06050   0.04236   0.99869   -0.03424   97.29004
1581   0.06045   0.04129   0.99869   -0.03500   0.06045   0.04129   0.99869   -0.03500   97.39380
1582   0.06037   0.04236   0.99869   -0.03446   0.06037   0.04236   0.99869   -0.03446   97.34497
1583   0.06034   0.04248   0.99875   -0.03455   0.06034   0.04248   0.99875   -0.03455   97.37244
1584   0.06044   0.04154   0.99863   -0.03409   0.06044   0.04154   0.99863   -0.03409   97.25647
1585   0.06039   0.04270   0.99863   -0.03403   0.06039   0.04270   0.99863   -0.03403   97.34497
1586   0.06035   0.04331   0.99875   -0.03482   0.06035   0.04331   0.99875   -0.03482   97.41821
1587   0.06041   0.04309   0.99869   -0.03421   0.06041   0.04309   0.99869   -0.03421   97.32971
1588   0.06047   0.04123   0.99875   -0.03482   0.06047   0.04123   0.99875   -0.03482   97.22900
1589   0.06044   0.04169   0.99875   -0.03449   0.06044   0.04169   0.99875   -0.03449   97.30225
1590   0.06042   0.04282   0.99875   -0.03543   0.06042   0.04282   0.99875   -0.03543   97.42126
1591   0.06047   0.04254   0.99866   -0.03433   0.06047   0.04254   0.99866   -0.03433   97.27478
1592   0.06047   0.04205   0.99872   -0.03485   0.06047   0.04205   0.99872   -0.03485   97.28699
1593   0.06045   0.04202   0.99869   -0.03516   0.06045   0.04202   0.99869   -0.03516   97.28699
1594   0.06035   0.04224   0.99863   -0.03366   0.06035   0.04224   0.99863   -0.03366   97.43347
1595   0.06040   0.04190   0.99869   -0.03336   0.06040   0.04190   0.99869   -0.03336   97.36023
1596   0.06032   0.04294   0.99875   -0.03494   0.06032   0.04294   0.99875   -0.03494   97.23511
1597   0.06022   0.04245   0.99863   -0.03357   0.06022   0.04245   0.99863   -0.03357   97.36938
1598   0.06043   0.04328   0.99872   -0.03418   0.06043   0.04328   0.99872   -0.03418   97.30225
1599   0.06053   0.04282   0.99878   -0.03522   0.06053   0.04282   0.99878   -0.03522   97.25952
1600   0.06042   0.04263   0.99866   -0.03412   0.06042   0.04263   0.99866   -0.03412   97.28699
1601   0.06036   0.04108   0.99863   -0.03412   0.06036   0.04108   0.99863   -0.03412   97.23816
1602   0.06045   0.04227   0.99866   -0.03372   0.06045   0.04227   0.99866   -0.03372   97.33276
1603   0.06051   0.04263   0.99869   -0.03452   0.06051   0.04263   0.99869   -0.03452   97.30530
1604   0.06042   0.04209   0.99866   -0.03467   0.06042   0.04209   0.99866   -0.03467   97.34802
1605   0.06037   0.04224   0.99866   -0.03497   0.06037   0.04224   0.99866   -0.03497   97.37549
1606   0.06040   0.04224   0.99866   -0.03427   0.06040   0.04224   0.99866   -0.03427   97.22595
1607   0.06044   0.04205   0.99875   -0.03436   0.06044   0.04205   0.99875   -0.03436   97.24121
1608   0.06036   0.04294   0.99869   -0.03452   0.06036   0.04294   0.99869   -0.03452   97.29919
1609   0.06036   0.04184   0.99863   -0.03479   0.06036   0.04184   0.99863   -0.03479   97.39075
1610   0.06046   0.04260   0.99866   -0.03351   0.06046   0.04260   0.99866   -0.03351   97.22595
1611   0.06046   0.04154   0.99869   -0.03488   0.06046   0.04154   0.99869   -0.03488   97.25647
1612   0.06043   0.04181   0.99875   -0.03558   0.06043   0.04181   0.99875   -0.03558   97.34802
1613   0.06051   0.04193   0.99866   -0.03525   0.06051   0.04193   0.99866   -0.03525   97.36633
1614   0.06053   0.04181   0.99866   -0.03345   0.06053   0.04181   0.99866   -0.03345   97.33582
1615   0.06051   0.04312   0.99863   -0.03488   0.06051   0.04312   0.99863   -0.03488   97.25952
1616   0.06044   0.04236   0.99872   -0.03516   0.06044   0.04236   0.99872   -0.03516   97.36328
1617   0.06049   0.04209   0.99866   -0.03302   0.06049   0.04209   0.99866   -0.03302   97.30530
1618   0.06049   0.04166   0.99872   -0.03458   0.06049   0.04166   0.99872   -0.03458   97.16797
1619   0.06046   0.04239   0.99869   -0.03415   0.06046   0.04239   0.99869   -0.03415   97.25647
1620   0.06039   0.04279   0.99875   -0.03577   0.06039   0.04279   0.99875   -0.03577   97.28394
1621   0.06050   0.04233   0.99863   -0.03485   0.06050   0.04233   0.99863   -0.03485   97.19849
1622   0.06053   0.04392   0.99875   -0.03394   0.06053   0.04392   0.99875   -0.03394   97.27478
1623   0.06047   0.04266   0.99863   -0.03522   0.06047   0.04266   0.99863   -0.03522   97.30225
1624   0.06041   0.04294   0.99863   -0.03513   0.06041   0.04294   0.99863   -0.03513   97.42126
1625   0.06053   0.04324   0.99869   -0.03409   0.06053   0.04324   0.99869   -0.03409   97.24426
1626   0.06052   0.04263   0.99875   -0.03403   0.06052   0.04263   0.99875   -0.03403   97.19849
1627   0.06047   0.04263   0.99866   -0.03552   0.06047   0.04263   0.99866   -0.03552   97.42432
1628   0.06044   0.04254   0.99866   -0.03543   0.06044   0.04254   0.99866   -0.03543   97.30225
1629   0.06047   0.04224   0.99866   -0.03433   0.06047   0.04224   0.99866   -0.03433   97.36328
1630   0.06044   0.04270   0.99872   -0.03504   0.06044   0.04270   0.99872   -0.03504   97.16492
1631   0.06041   0.04202   0.99863   -0.03436   0.06041   0.04202   0.99863   -0.03436   97.31445
1632   0.06041   0.04212   0.99875   -0.03467   0.06041   0.04212   0.99875   -0.03467   97.31445
1633   0.06052   0.04273   0.99866   -0.03482   0.06052   0.04273   0.99866   -0.03482   97.16797
1634   0.06051   0.04291   0.99872   -0.03500   0.06051   0.04291   0.99872   -0.03500   97.19849
1635   0.06044   0.04257   0.99866   -0.03565   0.06044   0.04257   0.99866   -0.03565   97.30225
1636   0.06047   0.04199   0.99866   -0.03394   0.06047   0.04199   0.99866   -0.03394   97.37854
1637   0.06048   0.04199   0.99866   -0.03415   0.06048   0.04199   0.99866   -0.03415   97.36328
1638   0.06046   0.04132   0.99875   -0.03418   0.06046   0.04132   0.99875   -0.03418   97.31750
1639   0.06044   0.04306   0.99872   -0.03491   0.06044   0.04306   0.99872   -0.03491   97.40906
1640   0.06047   0.04230   0.99872   -0.03363   0.06047   0.04230   0.99872   -0.03363   97.19849
1641   0.06045   0.04227   0.99872   -0.03436   0.06045   0.04227   0.99872   -0.03436   97.21069
1642   0.06038   0.04257   0.99875   -0.03525   0.06038   0.04257   0.99875   -0.03525   97.34497
1643   0.06043   0.04270   0.99854   -0.03604   0.06043   0.04270   0.99854   -0.03604   97.25647
1644   0.06046   0.04224   0.99875   -0.03537   0.06046   0.04224   0.99875   -0.03537   97.28699
1645   0.06046   0.04230   0.99872   -0.03507   0.06046   0.04230   0.99872   -0.03507   97.30225
1646   0.06047   0.04202   0.99863   -0.03555   0.06047   0.04202   0.99863   -0.03555   97.28699
1647   0.06048   0.04334   0.99863   -0.03488   0.06048   0.04334   0.99863   -0.03488   97.29004
1648   0.06050   0.04346   0.99866   -0.03458   0.06050   0.04346   0.99866   -0.03458   97.22900
1649   0.06047   0.04181   0.99875   -0.03467   0.06047   0.04181   0.99875   -0.03467   97.31750
1650   0.06047   0.04266   0.99869   -0.03543   0.06047   0.04266   0.99869   -0.03543   97.31750
1651   0.06050   0.04239   0.99866   -0.03442   0.06050   0.04239   0.99866   -0.03442   97.42432
1652   0.06047   0.04270   0.99872   -0.03482   0.06047   0.04270   0.99872   -0.03482   97.27173
1653   0.06035   0.04233   0.99872   -0.03497   0.06035   0.04233   0.99872   -0.03497   97.34497
1654   0.06037   0.04294   0.99872   -0.03452   0.06037   0.04294   0.99872   -0.03452   97.43652
1655   0.06044   0.04248   0.99875   -0.03363   0.06044   0.04248   0.99875   -0.03363   97.25647
1656   0.06046   0.04279   0.99863   -0.03473   0.06046   0.04279   0.99863   -0.03473   97.28699
1657   0.06039   0.04285   0.99866   -0.03452   0.06039   0.04285   0.99866   -0.03452   97.46704
1658   0.06045   0.04288   0.99869   -0.03470   0.06045   0.04288   0.99869   -0.03470   97.39380
1659   0.06052   0.04218   0.99869   -0.03464   0.06052   0.04218   0.99869   -0.03464   97.12524
1660   0.06047   0.04187   0.99875   -0.03476   0.06047   0.04187   0.99875   -0.03476   97.34802
1661   0.06042   0.04184   0.99863   -0.03549   0.06042   0.04184   0.99863   -0.03549   97.42126
1662   0.06049   0.04242   0.99875   -0.03473   0.06049   0.04242   0.99875   -0.03473   97.36633
1663   0.06052   0.04205   0.99863   -0.03455   0.06052   0.04205   0.99863   -0.03455   97.29004
1664   0.06042   0.04276   0.99872   -0.03372   0.06042   0.04276   0.99872   -0.03372   97.30225
1665   0.06029   0.04239   0.99866   -0.03558   0.06029   0.04239   0.99866   -0.03558   97.41821
1666   0.06046   0.04361   0.99863   -0.03479   0.06046   0.04361   0.99863   -0.03479   97.21069
1667   0.06048   0.04254   0.99872   -0.03565   0.06048   0.04254   0.99872   -0.03565   97.10693
1668   0.06041   0.04279   0.99875   -0.03482   0.06041   0.04279   0.99875   -0.03482   97.28699
1669   0.06036   0.04251   0.99872   -0.03494   0.06036   0.04251   0.99872   -0.03494   97.32971
1670   0.06048   0.04309   0.99875   -0.03409   0.06048   0.04309   0.99875   -0.03409   97.27478
1671   0.06051   0.04263   0.99875   -0.03403   0.06051   0.04263   0.99875   -0.03403   97.21375
1672   0.06042   0.04212   0.99875   -0.03446   0.06042   0.04212   0.99875   -0.03446   97.45178
1673   0.06036   0.04175   0.99878   -0.03479   0.06036   0.04175   0.99878   -0.03479   97.45178
1674   0.06051   0.04248   0.99863   -0.03381   0.06051   0.04248   0.99863   -0.03381   97.32056
1675   0.06050   0.04224   0.99869   -0.03424   0.06050   0.04224   0.99869   -0.03424   97.22900
1676   0.06037   0.04157   0.99869   -0.03479   0.06037   0.04157   0.99869   -0.03479   97.26868
1677   0.06025   0.04321   0.99869   -0.03412   0.06025   0.04321   0.99869   -0.03412   97.36938
1678   0.06031   0.04218   0.99869   -0.03366   0.06031   0.04218   0.99869   -0.03366   97.21985
1679   0.06042   0.04236   0.99872   -0.03345   0.06042   0.04236   0.99872   -0.03345   97.21069
1680   0.06045   0.04334   0.99847   -0.03558   0.06045   0.04334   0.99847   -0.03558   97.33276
1681   0.06047   0.04212   0.99878   -0.03467   0.06047   0.04212   0.99878   -0.03467   97.24121
1682   0.06047   0.04209   0.99875   -0.03333   0.06047   0.04209   0.99875   -0.03333   97.25952
1683   0.06044   0.04294   0.99863   -0.03391   0.06044   0.04294   0.99863   -0.03391   97.30225
1684   0.06045   0.04306   0.99869   -0.03452   0.06045   0.04306   0.99869   -0.03452   97.37854
1685   0.06048   0.04154   0.99872   -0.03397   0.06048   0.04154   0.99872   -0.03397   97.40906
1686   0.06049   0.04202   0.99866   -0.03433   0.06049   0.04202   0.99866   -0.03433   97.35107
1687   0.06042   0.04276   0.99875   -0.03464   0.06042   0.04276   0.99875   -0.03464   97.42126
1688   0.06037   0.04257   0.99866   -0.03372   0.06037   0.04257   0.99866   -0.03372   97.36023
1689   0.06045   0.04318   0.99869   -0.03400   0.06045   0.04318   0.99869   -0.03400   97.33276
1690   0.06043   0.04257   0.99866   -0.03424   0.06043   0.04257   0.99866   -0.03424   97.24121
1691   0.06038   0.04196   0.99875   -0.03406   0.06038   0.04196   0.99875   -0.03406   97.29919
1692   0.06040   0.04242   0.99875   -0.03375   0.06040   0.04242   0.99875   -0.03375   97.28394
1693   0.06047   0.04245   0.99869   -0.03452   0.06047   0.04245   0.99869   -0.03452   97.36328
1694   0.06046   0.04279   0.99863   -0.03381   0.06046   0.04279   0.99863   -0.03381   97.31750
1695   0.06046   0.04190   0.99875   -0.03427   0.06046   0.04190   0.99875   -0.03427   97.25647
1696   0.06051   0.04172   0.99872   -0.03516   0.06051   0.04172   0.99872   -0.03516   97.42737
1697   0.06060   0.04282   0.99866   -0.03397   0.06060   0.04282   0.99866   -0.03397   97.39990
1698   0.06041   0.04263   0.99869   -0.03433   0.06041   0.04263   0.99869   -0.03433   97.45178
1699   0.06034   0.04328   0.99869   -0.03491   0.06034   0.04328   0.99869   -0.03491   97.25037
1700   0.06040   0.04093   0.99878   -0.03311   0.06040   0.04093   0.99878   -0.03311   97.25342
1701   0.06052   0.04157   0.99875   -0.03406   0.06052   0.04157   0.99875   -0.03406   97.24426
1702   0.06046   0.04248   0.99875   -0.03485   0.06046   0.04248   0.99875   -0.03485   97.30225
1703   0.06042   0.04221   0.99869   -0.03455   0.06042   0.04221   0.99869   -0.03455   97.31750
1704   0.06047   0.04205   0.99866   -0.03406   0.06047   0.04205   0.99866   -0.03406   97.27173
1705   0.06047   0.04300   0.99866   -0.03378   0.06047   0.04300   0.99866   -0.03378   97.30225
1706   0.06044   0.04215   0.99863   -0.03525   0.06044   0.04215   0.99863   -0.03525   97.30225
1707   0.06045   0.04120   0.99872   -0.03421   0.06045   0.04120   0.99872   -0.03421   97.40906
1708   0.06047   0.04114   0.99881   -0.03308   0.06047   0.04114   0.99881   -0.03308   97.28699
1709   0.06047   0.04218   0.99875   -0.03385   0.06047   0.04218   0.99875   -0.03385   97.30225
1710   0.06040   0.04196   0.99866   -0.03519   0.06040   0.04196   0.99866   -0.03519   97.42126
1711   0.06042   0.04224   0.99875   -0.03467   0.06042   0.04224   0.99875   -0.03467   97.22595
1712   0.06048   0.04248   0.99869   -0.03412   0.06048   0.04248   0.99869   -0.03412   97.13745
1713   0.06056   0.04251   0.99869   -0.03482   0.06056   0.04251   0.99869   -0.03482   97.26257
1714   0.06030   0.04291   0.99863   -0.03424   0.06030   0.04291   0.99863   -0.03424   97.47925
1715   0.06027   0.04288   0.99872   -0.03485   0.06027   0.04288   0.99872   -0.03485   97.26563
1716   0.06047   0.04233   0.99863   -0.03394   0.06047   0.04233   0.99863   -0.03394   97.27478
1717   0.06049   0.04334   0.99872   -0.03458   0.06049   0.04334   0.99872   -0.03458   97.19849
1718   0.06034   0.04279   0.99872   -0.03485   0.06034   0.04279   0.99872   -0.03485   97.38770
1719   0.06038   0.04184   0.99866   -0.03357   0.06038   0.04184   0.99866   -0.03357   97.29919
1720   0.06048   0.04233   0.99866   -0.03363   0.06048   0.04233   0.99866   -0.03363   97.16797
1721   0.06044   0.04288   0.99872   -0.03442   0.06044   0.04288   0.99872   -0.03442   97.30225
1722   0.06034   0.04193   0.99863   -0.03479   0.06034   0.04193   0.99863   -0.03479   97.35718
1723   0.06037   0.04193   0.99869   -0.03397   0.06037   0.04193   0.99869   -0.03397   97.25342
1724   0.06042   0.04202   0.99872   -0.03375   0.06042   0.04202   0.99872   -0.03375   97.11914
1725   0.06036   0.04263   0.99872   -0.03494   0.06036   0.04263   0.99872   -0.03494   97.39075
1726   0.06032   0.04297   0.99872   -0.03372   0.06032   0.04297   0.99872   -0.03372   97.44873
1727   0.06045   0.04209   0.99863   -0.03485   0.06045   0.04209   0.99863   -0.03485   97.14966
1728   0.06043   0.04163   0.99875   -0.03366   0.06043   0.04163   0.99875   -0.03366   97.31750
1729   0.06037   0.04184   0.99863   -0.03479   0.06037   0.04184   0.99863   -0.03479   97.37549
1730   0.06041   0.04163   0.99875   -0.03439   0.06041   0.04163   0.99875   -0.03439   97.29919
1731   0.06047   0.04190   0.99869   -0.03314   0.06047   0.04190   0.99869   -0.03314   97.24426
1732   0.06048   0.04254   0.99875   -0.03394   0.06048   0.04254   0.99875   -0.03394   97.22900
1733   0.06040   0.04172   0.99872   -0.03397   0.06040   0.04172   0.99872   -0.03397   97.37549
1734   0.06043   0.04300   0.99869   -0.03461   0.06043   0.04300   0.99869   -0.03461   97.37854
1735   0.06042   0.04315   0.99869   -0.03381   0.06042   0.04315   0.99869   -0.03381   97.24121
1736   0.06038   0.04254   0.99869   -0.03446   0.06038   0.04254   0.99869   -0.03446   97.17712
1737   0.06036   0.04193   0.99872   -0.03348   0.06036   0.04193   0.99872   -0.03348   97.31445
1738   0.06042   0.04187   0.99872   -0.03388   0.06042   0.04187   0.99872   -0.03388   97.30225
1739   0.06044   0.04248   0.99866   -0.03442   0.06044   0.04248   0.99866   -0.03442   97.30225
1740   0.06042   0.04181   0.99872   -0.03449   0.06042   0.04181   0.99872   -0.03449   97.37549
1741   0.06040   0.04196   0.99866   -0.03375   0.06040   0.04196   0.99866   -0.03375   97.34497
1742   0.06049   0.04169   0.99875   -0.03449   0.06049   0.04169   0.99875   -0.03449   97.21375
1743   0.06044   0.04132   0.99875   -0.03439   0.06044   0.04132   0.99875   -0.03439   97.34802
1744   0.06042   0.04251   0.99863   -0.03464   0.06042   0.04251   0.99863   -0.03464   97.31750
1745   0.06046   0.04291   0.99872   -0.03482   0.06046   0.04291   0.99872   -0.03482   97.27173
1746   0.06046   0.04187   0.99869   -0.03345   0.06046   0.04187   0.99869   -0.03345   97.24121
1747   0.06035   0.04260   0.99872   -0.03403   0.06035   0.04260   0.99872   -0.03403   97.29919
1748   0.06035   0.04266   0.99869   -0.03494   0.06035   0.04266   0.99869   -0.03494   97.39075
1749   0.06042   0.04297   0.99869   -0.03491   0.06042   0.04297   0.99869   -0.03491   97.21069
1750   0.06042   0.04209   0.99869   -0.03385   0.06042   0.04209   0.99869   -0.03385   97.28699
1751   0.06037   0.04242   0.99869   -0.03363   0.06037   0.04242   0.99869   -0.03363   97.40601
1752   0.06038   0.04169   0.99863   -0.03470   0.06038   0.04169   0.99863   -0.03470   97.40601
1753   0.06046   0.04160   0.99863   -0.03366   0.06046   0.04160   0.99863   -0.03366   97.30225
1754   0.06047   0.04199   0.99875   -0.03406   0.06047   0.04199   0.99875   -0.03406   97.30225
1755   0.06041   0.04297   0.99866   -0.03473   0.06041   0.04297   0.99866   -0.03473   97.36023
1756   0.06040   0.04233   0.99875   -0.03394   0.06040   0.04233   0.99875   -0.03394   97.36023
1757   0.06047   0.04218   0.99866   -0.03302   0.06047   0.04218   0.99866   -0.03302   97.27173
1758   0.06043   0.04294   0.99872   -0.03400   0.06043   0.04294   0.99872   -0.03400   97.24121
1759   0.06032   0.04328   0.99866   -0.03504   0.06032   0.04328   0.99866   -0.03504   97.37244
1760   0.06040   0.04254   0.99875   -0.03354   0.06040   0.04254   0.99875   -0.03354   97.34497
1761   0.06045   0.04242   0.99872   -0.03455   0.06045   0.04242   0.99872   -0.03455   97.27173
1762   0.06044   0.04242   0.99872   -0.03403   0.06044   0.04242   0.99872   -0.03403   97.18018
1763   0.06035   0.04224   0.99863   -0.03436   0.06035   0.04224   0.99863   -0.03436   97.39075
1764   0.06043   0.04315   0.99872   -0.03452   0.06043   0.04315   0.99872   -0.03452   97.34802
1765   0.06049   0.04297   0.99872   -0.03491   0.06049   0.04297   0.99872   -0.03491   97.25952
1766   0.06045   0.04230   0.99875   -0.03333   0.06045   0.04230   0.99875   -0.03333   97.28699
1767   0.06039   0.04291   0.99866   -0.03421   0.06039   0.04291   0.99866   -0.03421   97.34497
1768   0.06048   0.04242   0.99869   -0.03455   0.06048   0.04242   0.99869   -0.03455   97.21375
1769   0.06047   0.04199   0.99863   -0.03323   0.06047   0.04199   0.99863   -0.03323   97.25952
1770   0.06039   0.04221   0.99875   -0.03446   0.06039   0.04221   0.99875   -0.03446   97.26868
1771   0.06030   0.04178   0.99872   -0.03430   0.06030   0.04178   0.99872   -0.03430   97.41821
1772   0.06040   0.04187   0.99863   -0.03327   0.06040   0.04187   0.99863   -0.03327   97.29919
1773   0.06047   0.04309   0.99869   -0.03400   0.06047   0.04309   0.99869   -0.03400   97.22900
1774   0.06043   0.04355   0.99872   -0.03479   0.06043   0.04355   0.99872   -0.03479   97.28699
1775   0.06038   0.04248   0.99869   -0.03446   0.06038   0.04248   0.99869   -0.03446   97.39075
1776   0.06044   0.04279   0.99863   -0.03381   0.06044   0.04279   0.99863   -0.03381   97.34802
1777   0.06053   0.04270   0.99872   -0.03339   0.06053   0.04270   0.99872   -0.03339   97.24426
1778   0.06052   0.04251   0.99872   -0.03452   0.06052   0.04251   0.99872   -0.03452   97.38159
1779   0.06045   0.04233   0.99872   -0.03403   0.06045   0.04233   0.99872   -0.03403   97.39380
1780   0.06046   0.04181   0.99866   -0.03458   0.06046   0.04181   0.99866   -0.03458   97.27173
1781   0.06046   0.04239   0.99872   -0.03385   0.06046   0.04239   0.99872   -0.03385   97.30225
1782   0.06037   0.04242   0.99863   -0.03467   0.06037   0.04242   0.99863   -0.03467   97.31445
1783   0.06035   0.04224   0.99863   -0.03385   0.06035   0.04224   0.99863   -0.03385   97.43347
1784   0.06042   0.04279   0.99866   -0.03403   0.06042   0.04279   0.99866   -0.03403   97.24121
1785   0.06044   0.04294   0.99863   -0.03442   0.06044   0.04294   0.99863   -0.03442   97.27173
1786   0.06037   0.04303   0.99869   -0.03412   0.06037   0.04303   0.99869   -0.03412   97.34497
1787   0.06043   0.04239   0.99869   -0.03464   0.06043   0.04239   0.99869   -0.03464   97.25647
1788   0.06046   0.04184   0.99863   -0.03336   0.06046   0.04184   0.99863   -0.03336   97.18018
1789   0.06047   0.04324   0.99863   -0.03418   0.06047   0.04324   0.99863   -0.03418   97.28699
1790   0.06043   0.04279   0.99863   -0.03400   0.06043   0.04279   0.99863   -0.03400   97.36328
1791   0.06045   0.04175   0.99890   -0.03226   0.06045   0.04175   0.99890   -0.03226   97.40906
1792   0.06049   0.04221   0.99869   -0.03363   0.06049   0.04221   0.99869   -0.03363   97.24426
1793   0.06041   0.04239   0.99863   -0.03424   0.06041   0.04239   0.99863   -0.03424   97.40601
1794   0.06034   0.04202   0.99872   -0.03378   0.06034   0.04202   0.99872   -0.03378   97.23816
1795   0.06044   0.04215   0.99863   -0.03244   0.06044   0.04215   0.99863   -0.03244   97.14966
1796   0.06028   0.04340   0.99875   -0.03482   0.06028   0.04340   0.99875   -0.03482   97.31140
1797   0.06022   0.04196   0.99866   -0.03348   0.06022   0.04196   0.99866   -0.03348   97.36938
1798   0.06042   0.04218   0.99872   -0.03455   0.06042   0.04218   0.99872   -0.03455   97.33276
1799   0.06053   0.04248   0.99872   -0.03461   0.06053   0.04248   0.99872   -0.03461   97.33582
1800   0.06038   0.04257   0.99872   -0.03323   0.06038   0.04257   0.99872   -0.03323   97.25342
1801   0.06034   0.04254   0.99878   -0.03485   0.06034   0.04254   0.99878   -0.03485   97.41821
1802   0.06039   0.04209   0.99875   -0.03244   0.06039   0.04209   0.99875   -0.03244   97.42126
1803   0.06052   0.04285   0.99875   -0.03351   0.06052   0.04285   0.99875   -0.03351   97.22900
1804   0.06040   0.04233   0.99872   -0.03424   0.06040   0.04233   0.99872   -0.03424   97.31445
1805   0.06034   0.04233   0.99866   -0.03406   0.06034   0.04233   0.99866   -0.03406   97.38770
1806   0.06035   0.04239   0.99869   -0.03345   0.06035   0.04239   0.99869   -0.03345   97.29919
1807   0.06046   0.04212   0.99866   -0.03436   0.06046   0.04212   0.99866   -0.03436   97.18018
1808   0.06034   0.04205   0.99872   -0.03418   0.06034   0.04205   0.99872   -0.03418   97.38770
1809   0.06035   0.04160   0.99869   -0.03430   0.06035   0.04160   0.99869   -0.03430   97.32971
1810   0.06047   0.04151   0.99866   -0.03388   0.06047   0.04151   0.99866   -0.03388   97.22595
1811   0.06049   0.04202   0.99869   -0.03497   0.06049   0.04202   0.99869   -0.03497   97.21375
1812   0.06043   0.04151   0.99878   -0.03418   0.06043   0.04151   0.99878   -0.03418   97.36328
1813   0.06047   0.04147   0.99869   -0.03366   0.06047   0.04147   0.99869   -0.03366   97.53113
1814   0.06056   0.04236   0.99878   -0.03391   0.06056   0.04236   0.99878   -0.03391   97.27783
1815   0.06050   0.04242   0.99866   -0.03464   0.06050   0.04242   0.99866   -0.03464   97.27478
1816   0.06046   0.04181   0.99863   -0.03507   0.06046   0.04181   0.99863   -0.03507   97.36328
1817   0.06046   0.04230   0.99866   -0.03415   0.06046   0.04230   0.99866   -0.03415   97.31750
1818   0.06049   0.04166   0.99869   -0.03397   0.06049   0.04166   0.99869   -0.03397   97.15271
1819   0.06047   0.04361   0.99866   -0.03449   0.06047   0.04361   0.99866   -0.03449   97.22900
1820   0.06035   0.04218   0.99872   -0.03507   0.06035   0.04218   0.99872   -0.03507   97.39075
1821   0.06043   0.04257   0.99866   -0.03403   0.06043   0.04257   0.99866   -0.03403   97.37854
1822   0.06055   0.04215   0.99869   -0.03403   0.06055   0.04215   0.99869   -0.03403   97.23206
1823   0.06049   0.04288   0.99872   -0.03491   0.06049   0.04288   0.99872   -0.03491   97.18323
1824   0.06041   0.04209   0.99875   -0.03528   0.06041   0.04209   0.99875   -0.03528   97.39075
1825   0.06049   0.04218   0.99875   -0.03385   0.06049   0.04218   0.99875   -0.03385   97.25952
1826   0.06053   0.04190   0.99866   -0.03253   0.06053   0.04190   0.99866   -0.03253   97.29004
1827   0.06047   0.04227   0.99872   -0.03464   0.06047   0.04227   0.99872   -0.03464   97.27478
1828   0.06040   0.04251   0.99869   -0.03455   0.06040   0.04251   0.99869   -0.03455   97.40601
1829   0.06043   0.04270   0.99869   -0.03302   0.06043   0.04270   0.99869   -0.03302   97.24121
1830   0.06047   0.04260   0.99863   -0.03424   0.06047   0.04260   0.99863   -0.03424   97.16797
1831   0.06043   0.04318   0.99875   -0.03439   0.06043   0.04318   0.99875   -0.03439   97.24121
1832   0.06040   0.04147   0.99872   -0.03479   0.06040   0.04147   0.99872   -0.03479   97.31445
1833   0.06046   0.04239   0.99872   -0.03342   0.06046   0.04239   0.99872   -0.03342   97.30225
1834   0.06050   0.04288   0.99866   -0.03400   0.06050   0.04288   0.99866   -0.03400   97.18323
1835   0.06045   0.04163   0.99866   -0.03519   0.06045   0.04163   0.99866   -0.03519   97.28699
1836   0.06046   0.04154   0.99872   -0.03327   0.06046   0.04154   0.99872   -0.03327   97.33276
1837   0.06048   0.04105   0.99863   -0.03378   0.06048   0.04105   0.99863   -0.03378   97.32056
1838   0.06051   0.04248   0.99872   -0.03391   0.06051   0.04248   0.99872   -0.03391   97.24426
1839   0.06044   0.04199   0.99875   -0.03476   0.06044   0.04199   0.99875   -0.03476   97.31750
1840   0.06043   0.04163   0.99869   -0.03449   0.06043   0.04163   0.99869   -0.03449   97.36328
1841   0.06037   0.04236   0.99875   -0.03345   0.06037   0.04236   0.99875   -0.03345   97.28394
1842   0.06041   0.04193   0.99866   -0.03336   0.06041   0.04193   0.99866   -0.03336   97.32971
1843   0.06039   0.04242   0.99872   -0.03476   0.06039   0.04242   0.99872   -0.03476   97.36023
1844   0.06046   0.04144   0.99878   -0.03409   0.06046   0.04144   0.99878   -0.03409   97.28699
1845   0.06045   0.04291   0.99869   -0.03412   0.06045   0.04291   0.99869   -0.03412   97.31750
1846   0.06041   0.04233   0.99863   -0.03433   0.06041   0.04233   0.99863   -0.03433   97.37549
1847   0.06044   0.04236   0.99869   -0.03565   0.06044   0.04236   0.99869   -0.03565   97.31750
1848   0.06047   0.04144   0.99869   -0.03327   0.06047   0.04144   0.99869   -0.03327   97.37854
1849   0.06045   0.04184   0.99866   -0.03354   0.06045   0.04184   0.99866   -0.03354   97.34802
1850   0.06043   0.04294   0.99872   -0.03400   0.06043   0.04294   0.99872   -0.03400   97.39380
1851   0.06047   0.04334   0.99863   -0.03470   0.06047   0.04334   0.99863   -0.03470   97.31750
1852   0.06046   0.04334   0.99875   -0.03378   0.06046   0.04334   0.99875   -0.03378   97.19543
1853   0.06039   0.04285   0.99866   -0.03381   0.06039   0.04285   0.99866   -0.03381   97.20764
1854   0.06036   0.04212   0.99869   -0.03354   0.06036   0.04212   0.99869   -0.03354   97.40601
1855   0.06044   0.04355   0.99875   -0.03449   0.06044   0.04355   0.99875   -0.03449   97.18018
1856   0.06046   0.04285   0.99872   -0.03330   0.06046   0.04285   0.99872   -0.03330   97.31750
1857   0.06043   0.04233   0.99872   -0.03446   0.06043   0.04233   0.99872   -0.03446   97.27173
1858   0.06039   0.04263   0.99866   -0.03342   0.06039   0.04263   0.99866   -0.03342   97.36023
1859   0.06049   0.04224   0.99866   -0.03385   0.06049   0.04224   0.99866   -0.03385   97.22900
1860   0.06054   0.04236   0.99872   -0.03421   0.06054   0.04236   0.99872   -0.03421   97.24731
1861   0.06045   0.04294   0.99866   -0.03391   0.06045   0.04294   0.99866   -0.03391   97.30225
1862   0.06044   0.04318   0.99869   -0.03470   0.06044   0.04318   0.99869   -0.03470   97.31750
1863   0.06049   0.04263   0.99869   -0.03433   0.06049   0.04263   0.99869   -0.03433   97.18323
1864   0.06048   0.04257   0.99866   -0.03494   0.06048   0.04257   0.99866   -0.03494   97.12219
1865   0.06037   0.04270   0.99872   -0.03415   0.06037   0.04270   0.99872   -0.03415   97.29919
1866   0.06037   0.04233   0.99872   -0.03424   0.06037   0.04233   0.99872   -0.03424   97.36023
1867   0.06046   0.04266   0.99875   -0.03342   0.06046   0.04266   0.99875   -0.03342   97.22595
1868   0.06046   0.04245   0.99869   -0.03424   0.06046   0.04245   0.99869   -0.03424   97.28699
1869   0.06039   0.04224   0.99869   -0.03406   0.06039   0.04224   0.99869   -0.03406   97.39075
1870   0.06041   0.04355   0.99878   -0.03256   0.06041   0.04355   0.99878   -0.03256   97.32971
1871   0.06054   0.04300   0.99875   -0.03430   0.06054   0.04300   0.99875   -0.03430   97.12524
1872   0.06046   0.04196   0.99866   -0.03375   0.06046   0.04196   0.99866   -0.03375   97.25647
1873   0.06040   0.04163   0.99875   -0.03439   0.06040   0.04163   0.99875   -0.03439   97.46704
1874   0.06046   0.04230   0.99869   -0.03433   0.06046   0.04230   0.99869   -0.03433   97.33276
1875   0.06048   0.04202   0.99872   -0.03397   0.06048   0.04202   0.99872   -0.03397   97.16797
1876   0.06037   0.04190   0.99872   -0.03357   0.06037   0.04190   0.99872   -0.03357   97.26868
1877   0.06025   0.04324   0.99869   -0.03433   0.06025   0.04324   0.99869   -0.03433   97.36938
1878   0.06026   0.04196   0.99863   -0.03418   0.06026   0.04196   0.99863   -0.03418   97.24731
1879   0.06044   0.04089   0.99866   -0.03433   0.06044   0.04089   0.99866   -0.03433   97.30225
1880   0.06049   0.04270   0.99869   -0.03372   0.06049   0.04270   0.99869   -0.03372   97.25952
1881   0.06041   0.04166   0.99869   -0.03397   0.06041   0.04166   0.99869   -0.03397   97.42126
1882   0.06043   0.04257   0.99875   -0.03363   0.06043   0.04257   0.99875   -0.03363   97.34802
1883   0.06048   0.04251   0.99872   -0.03433   0.06048   0.04251   0.99872   -0.03433   97.29004
1884   0.06047   0.04199   0.99878   -0.03497   0.06047   0.04199   0.99878   -0.03497   97.27478
1885   0.06048   0.04343   0.99866   -0.03305   0.06048   0.04343   0.99866   -0.03305   97.43958
1886   0.06053   0.04291   0.99875   -0.03430   0.06053   0.04291   0.99875   -0.03430   97.21375
1887   0.06042   0.04334   0.99863   -0.03348   0.06042   0.04334   0.99863   -0.03348   97.16492
1888   0.06035   0.04245   0.99875   -0.03467   0.06035   0.04245   0.99875   -0.03467   97.31445
1889   0.06046   0.04202   0.99875   -0.03467   0.06046   0.04202   0.99875   -0.03467   97.33276
1890   0.06046   0.04251   0.99869   -0.03363   0.06046   0.04251   0.99869   -0.03363   97.21069
1891   0.06041   0.04230   0.99869   -0.03436   0.06041   0.04230   0.99869   -0.03436   97.25647
1892   0.06040   0.04297   0.99866   -0.03452   0.06040   0.04297   0.99866   -0.03452   97.37549
1893   0.06047   0.04209   0.99869   -0.03363   0.06047   0.04209   0.99869   -0.03363   97.36328
1894   0.06046   0.04147   0.99866   -0.03348   0.06046   0.04147   0.99866   -0.03348   97.39380
1895   0.06046   0.04263   0.99875   -0.03421   0.06046   0.04263   0.99875   -0.03421   97.30225
1896   0.06049   0.04209   0.99869   -0.03345   0.06049   0.04209   0.99869   -0.03345   97.32056
1897   0.06059   0.04294   0.99872   -0.03287   0.06059   0.04294   0.99872   -0.03287   97.32361
1898   0.06048   0.04248   0.99875   -0.03433   0.06048   0.04248   0.99875   -0.03433   97.15271
1899   0.06029   0.04276   0.99863   -0.03415   0.06029   0.04276   0.99863   -0.03415   97.38770
1900   0.06037   0.04239   0.99875   -0.03354   0.06037   0.04239   0.99875   -0.03354   97.32971
1901   0.06053   0.04291   0.99878   -0.03287   0.06053   0.04291   0.99878   -0.03287   97.29004
1902   0.06046   0.04270   0.99875   -0.03360   0.06046   0.04270   0.99875   -0.03360   97.36328
1903   0.06037   0.04285   0.99869   -0.03504   0.06037   0.04285   0.99869   -0.03504   97.46704
1904   0.06042   0.04199   0.99866   -0.03415   0.06042   0.04199   0.99866   -0.03415   97.31750
1905   0.06049   0.04212   0.99872   -0.03262   0.06049   0.04212   0.99872   -0.03262   97.25952
1906   0.06047   0.04328   0.99869   -0.03308   0.06047   0.04328   0.99869   -0.03308   97.25952
1907   0.06043   0.04279   0.99872   -0.03482   0.06043   0.04279   0.99872   -0.03482   97.25647
1908   0.06048   0.04285   0.99872   -0.03473   0.06048   0.04285   0.99872   -0.03473   97.19849
1909   0.06050   0.04245   0.99866   -0.03381   0.06050   0.04245   0.99866   -0.03381   97.35107
1910   0.06044   0.04236   0.99863   -0.03385   0.06044   0.04236   0.99863   -0.03385   97.36328
1911   0.06035   0.04248   0.99875   -0.03406   0.06035   0.04248   0.99875   -0.03406   97.25342
1912   0.06047   0.04251   0.99863   -0.03302   0.06047   0.04251   0.99863   -0.03302   97.31750
1913   0.06056   0.04187   0.99872   -0.03433   0.06056   0.04187   0.99872   -0.03433   97.35107
1914   0.06034   0.04224   0.99866   -0.03406   0.06034   0.04224   0.99866   -0.03406   97.31140
1915   0.06024   0.04370   0.99866   -0.03452   0.06024   0.04370   0.99866   -0.03452   97.35413
1916   0.06049   0.04178   0.99866   -0.03415   0.06049   0.04178   0.99866   -0.03415   97.21375
1917   0.06054   0.04291   0.99872   -0.03409   0.06054   0.04291   0.99872   -0.03409   97.18628
1918   0.06037   0.04306   0.99872   -0.03421   0.06037   0.04306   0.99872   -0.03421   97.25342
1919   0.06035   0.04303   0.99872   -0.03342   0.06035   0.04303   0.99872   -0.03342   97.41821
1920   0.06053   0.04273   0.99872   -0.03381   0.06053   0.04273   0.99872   -0.03381   97.24426
1921   0.06053   0.04291   0.99872   -0.03391   0.06053   0.04291   0.99872   -0.03391   97.20154
1922   0.06037   0.04151   0.99869   -0.03400   0.06037   0.04151   0.99869   -0.03400   97.26868
1923   0.06034   0.04343   0.99866   -0.03369   0.06034   0.04343   0.99866   -0.03369   97.37244
1924   0.06044   0.04273   0.99863   -0.03372   0.06044   0.04273   0.99863   -0.03372   97.16492
1925   0.06042   0.04306   0.99863   -0.03320   0.06042   0.04306   0.99863   -0.03320   97.28699
1926   0.06040   0.04321   0.99872   -0.03461   0.06040   0.04321   0.99872   -0.03461   97.26868
1927   0.06042   0.04300   0.99863   -0.03308   0.06042   0.04300   0.99863   -0.03308   97.25647
1928   0.06047   0.04230   0.99869   -0.03272   0.06047   0.04230   0.99869   -0.03272   97.22900
1929   0.06047   0.04257   0.99869   -0.03442   0.06047   0.04257   0.99869   -0.03442   97.19849
1930   0.06043   0.04257   0.99863   -0.03455   0.06043   0.04257   0.99863   -0.03455   97.33276
1931   0.06047   0.04193   0.99878   -0.03436   0.06047   0.04193   0.99878   -0.03436   97.27478
1932   0.06051   0.04288   0.99875   -0.03391   0.06051   0.04288   0.99875   -0.03391   97.24426
1933   0.06043   0.04355   0.99872   -0.03336   0.06043   0.04355   0.99872   -0.03336   97.36328
1934   0.06041   0.04285   0.99869   -0.03360   0.06041   0.04285   0.99869   -0.03360   97.32971
1935   0.06038   0.04187   0.99875   -0.03265   0.06038   0.04187   0.99875   -0.03265   97.29919
1936   0.06042   0.04160   0.99866   -0.03388   0.06042   0.04160   0.99866   -0.03388   97.22595
1937   0.06035   0.04202   0.99866   -0.03336   0.06035   0.04202   0.99866   -0.03336   97.32971
1938   0.06044   0.04294   0.99872   -0.03522   0.06044   0.04294   0.99872   -0.03522   97.30225
1939   0.06047   0.04193   0.99869   -0.03375   0.06047   0.04193   0.99869   -0.03375   97.24426
1940   0.06042   0.04215   0.99863   -0.03366   0.06042   0.04215   0.99863   -0.03366   97.25647
1941   0.06044   0.04334   0.99872   -0.03388   0.06044   0.04334   0.99872   -0.03388   97.31750
1942   0.06044   0.04337   0.99869   -0.03287   0.06044   0.04337   0.99869   -0.03287   97.37854
1943   0.06046   0.04205   0.99872   -0.03375   0.06046   0.04205   0.99872   -0.03375   97.34802
1944   0.06047   0.04270   0.99872   -0.03464   0.06047   0.04270   0.99872   -0.03464   97.27173
1945   0.06042   0.04297   0.99866   -0.03381   0.06042   0.04297   0.99866   -0.03381   97.37549
1946   0.06044   0.04230   0.99869   -0.03345   0.06044   0.04230   0.99869   -0.03345   97.24121
1947   0.06039   0.04282   0.99863   -0.03421   0.06039   0.04282   0.99863   -0.03421   97.26868
1948   0.06037   0.04132   0.99872   -0.03369   0.06037   0.04132   0.99872   -0.03369   97.32971
1949   0.06035   0.04209   0.99863   -0.03305   0.06035   0.04209   0.99863   -0.03305   97.36023
1950   0.06046   0.04178   0.99872   -0.03296   0.06046   0.04178   0.99872   -0.03296   97.21069
1951   0.06046   0.04251   0.99863   -0.03534   0.06046   0.04251   0.99863   -0.03534   97.22595
1952   0.06039   0.04270   0.99863   -0.03403   0.06039   0.04270   0.99863   -0.03403   97.34497
1953   0.06041   0.04151   0.99872   -0.03378   0.06041   0.04151   0.99872   -0.03378   97.37549
1954   0.06053   0.04263   0.99872   -0.03238   0.06053   0.04263   0.99872   -0.03238   97.24426
1955   0.06046   0.04297   0.99872   -0.03351   0.06046   0.04297   0.99872   -0.03351   97.24121
1956   0.06042   0.04245   0.99863   -0.03433   0.06042   0.04245   0.99863   -0.03433   97.28699
1957   0.06047   0.04257   0.99863   -0.03381   0.06047   0.04257   0.99863   -0.03381   97.16797
1958   0.06047   0.04202   0.99866   -0.03293   0.06047   0.04202   0.99866   -0.03293   97.16797
1959   0.06036   0.04096   0.99866   -0.03372   0.06036   0.04096   0.99866   -0.03372   97.32971
1960   0.06033   0.04205   0.99875   -0.03366   0.06033   0.04205   0.99875   -0.03366   97.44873
1961   0.06039   0.04209   0.99875   -0.03265   0.06039   0.04209   0.99875   -0.03265   97.42126
1962   0.06048   0.04215   0.99875   -0.03394   0.06048   0.04215   0.99875   -0.03394   97.24426
1963   0.06041   0.04117   0.99869   -0.03360   0.06041   0.04117   0.99869   -0.03360   97.29919
1964   0.06039   0.04193   0.99875   -0.03436   0.06039   0.04193   0.99875   -0.03436   97.39075
1965   0.06049   0.04144   0.99875   -0.03388   0.06049   0.04144   0.99875   -0.03388   97.22900
1966   0.06050   0.04114   0.99890   -0.03320   0.06050   0.04114   0.99890   -0.03320   97.16797
1967   0.06046   0.04218   0.99875   -0.03455   0.06046   0.04218   0.99875   -0.03455   97.28699
1968   0.06039   0.04209   0.99875   -0.03406   0.06039   0.04209   0.99875   -0.03406   97.49756
1969   0.06046   0.04294   0.99863   -0.03351   0.06046   0.04294   0.99863   -0.03351   97.27173
1970   0.06042   0.04239   0.99872   -0.03385   0.06042   0.04239   0.99872   -0.03385   97.21069
1971   0.06035   0.04181   0.99866   -0.03409   0.06035   0.04181   0.99866   -0.03409   97.31445
1972   0.06035   0.04117   0.99887   -0.03311   0.06035   0.04117   0.99887   -0.03311   97.41821
1973   0.06047   0.04209   0.99875   -0.03284   0.06047   0.04209   0.99875   -0.03284   97.16797
1974   0.06046   0.04209   0.99869   -0.03366   0.06046   0.04209   0.99869   -0.03366   97.22595
1975   0.06040   0.04199   0.99866   -0.03415   0.06040   0.04199   0.99866   -0.03415   97.34497
1976   0.06047   0.04196   0.99863   -0.03446   0.06047   0.04196   0.99863   -0.03446   97.19849
1977   0.06053   0.04242   0.99872   -0.03381   0.06053   0.04242   0.99872   -0.03381   97.33582
1978   0.06055   0.04218   0.99875   -0.03363   0.06055   0.04218   0.99875   -0.03363   97.32056
1979   0.06050   0.04233   0.99875   -0.03442   0.06050   0.04233   0.99875   -0.03442   97.32056
1980   0.06045   0.04227   0.99863   -0.03333   0.06045   0.04227   0.99863   -0.03333   97.31750
1981   0.06043   0.04111   0.99881   -0.03308   0.06043   0.04111   0.99881   -0.03308   97.36328
1982   0.06036   0.04178   0.99869   -0.03388   0.06036   0.04178   0.99869   -0.03388   97.31445
1983   0.06039   0.04147   0.99863   -0.03369   0.06039   0.04147   0.99863   -0.03369   97.32971
1984   0.06044   0.04245   0.99869   -0.03354   0.06044   0.04245   0.99869   -0.03354   97.19543
1985   0.06044   0.04328   0.99872   -0.03418   0.06044   0.04328   0.99872   -0.03418   97.28699
1986   0.06042   0.04218   0.99869   -0.03394   0.06042   0.04218   0.99869   -0.03394   97.31750
1987   0.06043   0.04263   0.99866   -0.03272   0.06043   0.04263   0.99866   -0.03272   97.34802
1988   0.06046   0.04227   0.99887   -0.03183   0.06046   0.04227   0.99887   -0.03183   97.28699
1989   0.06046   0.04212   0.99866   -0.03385   0.06046   0.04212   0.99866   -0.03385   97.21069
1990   0.06042   0.04309   0.99875   -0.03320   0.06042   0.04309   0.99875   -0.03320   97.40601
1991   0.06049   0.04236   0.99875   -0.03323   0.06049   0.04236   0.99875   -0.03323   97.25952
1992   0.06048   0.04367   0.99875   -0.03284   0.06048   0.04367   0.99875   -0.03284   97.24426
1993   0.06041   0.04230   0.99869   -0.03485   0.06041   0.04230   0.99869   -0.03485   97.36023
1994   0.06033   0.04389   0.99860   -0.03488   0.06033   0.04389   0.99860   -0.03488   97.41821
1995   0.06044   0.04245   0.99869   -0.03403   0.06044   0.04245   0.99869   -0.03403   97.31750
1996   0.06030   0.04147   0.99866   -0.03320   0.06030   0.04147   0.99866   -0.03320   97.21985
1997   0.06023   0.04315   0.99863   -0.03415   0.06023   0.04315   0.99863   -0.03415   97.32361
1998   0.06041   0.04337   0.99872   -0.03378   0.06041   0.04337   0.99872   -0.03378   97.39075
1999   0.06055   0.04279   0.99878   -0.03339   0.06055   0.04279   0.99878   -0.03339   97.30530
2000   0.06044   0.04254   0.99875   -0.03372   0.06044   0.04254   0.99875   -0.03372   97.14966
